"Shalehills,"	2012	:	input	for	MTCLIM	v4.3				
MTCLIM	v4.3	OUTPUT	FILE	:	Mon	Jan	16	16:32:50	2012	
	yday	Tmax	Tmin	Tday	prcp	VPD	srad	daylen	SoilW	SoilT
		(degC)	(degC)	(degC)	(cm)	(Pa)	(Wm-2)	(s)	(%)	(deg C)
2008	1	4.44	-2.78	2.46	0.18	162.1754386	107.3576895	32928	24.19685183	2.213607307
2008	2	3.89	-5.56	1.29	0.02	187.1368421	242.3626217	32971	24.21315609	1.922296567
2008	3	-3.33	-11.11	-5.47	0	101.5438596	153.795681	33017	24.14226278	1.521006839
2008	4	-4.44	-10.56	-6.13	0	79.34736842	210.6844795	33066	23.60470548	0.939721136
2008	5	3.33	-9.44	-0.18	0.07	213.3263158	184.7731816	33119	23.96074208	-0.345185197
2008	6	5.56	-0.56	3.88	0.02	153.9578947	216.999156	33175	23.68562288	-0.415981387
2008	7	7.78	5	7.01	0.06	91.50175439	201.3661912	33234	26.57654832	0.205822891
2008	8	18.89	6.11	15.38	0	564.2736842	215.6980118	33296	26.59828733	1.953353386
2008	9	19.44	8.33	16.39	0.06	537.6280702	150.879084	33362	24.81134106	4.759821242
2008	10	11.67	-0.56	8.31	0.05	356.7017544	204.7227424	33431	24.03743246	6.114855876
2008	11	7.78	-0.56	5.49	2.31	221.4175439	101.7295765	33503	24.48284053	5.318064788
2008	12	10.56	2.78	8.42	0	250.8	220.641115	33579	24.36218905	4.350071592
2008	13	6.11	-2.22	3.82	0	199.2421053	135.333987	33657	24.06025842	4.34840187
2008	14	3.89	-2.22	2.21	0.12	138.4210526	111.5724702	33738	23.65446365	3.402003738
2008	15	2.78	-2.78	1.25	0	119.7754386	163.3214476	33822	23.4300688	2.816933333
2008	16	-1.11	-2.78	-1.57	0	32.70175439	175.9470937	33909	22.93937113	2.669775214
2008	17	0	-3.33	-0.92	0.77	65.66315789	56.70431483	33999	22.17113882	1.815657022
2008	18	2.22	-2.22	1	0.13	96.6877193	269.1626188	34092	22.07150171	1.616960167
2008	19	2.78	-6.67	0.18	0	173.9508772	105.2589581	34187	22.39819066	1.320974206
2008	20	-1.11	-12.22	-4.17	0	146.877193	205.0519469	34285	22.53744106	1.305056195
2008	21	-10	-13.89	-11.07	0	37.60701754	306.8234165	34386	22.37645165	0.557466233
2008	22	-5	-13.89	-7.44	0	98.44210526	78.45701528	34489	22.30628297	-0.340621291
2008	23	2.78	-6.11	0.33	0	167.4526316	314.5387484	34595	25.25360905	-0.846992157
2008	24	-2.78	-7.78	-4.15	0	76.32280702	179.3039219	34703	27.29176162	-0.990365575
2008	25	-2.22	-10	-4.36	0	109.6210526	321.8284598	34814	23.46146958	-1.084092607
2008	26	-3.89	-10	-5.57	0.04	82.45614035	144.0329554	34926	22.28913332	-1.074630852
2008	27	-2.78	-8.33	-4.31	0	82.82807018	171.1772159	35042	21.20218303	-0.965431067
2008	28	-0.56	-5	-1.78	0	80.60350877	214.1984129	35159	19.64748181	-1.224905784
2008	29	2.22	-2.22	1	1.4	96.6877193	60.02176994	35278	21.13612061	-1.137301064
2008	30	5.56	-1.11	3.72	0.5	164.3087719	331.9026836	35400	22.07186403	-0.948177279
2008	31	0.56	-8.89	-2.04	0	149.9578947	310.5629592	35523	21.43225417	-0.781427761
2008	32	1.11	-7.78	-1.33	2.72	149.9017544	46.30497349	35649	21.98261333	-0.702616907
2008	33	2.78	-2.22	1.4	0	110.245614	73.32927102	35776	25.68621527	-0.56369608
2008	34	1.11	-5.56	-0.72	0	123.1789474	260.4022003	35905	26.5962342	-0.358431654
2008	35	6.11	-5	3.06	0.03	238.077193	38.36863137	36036	26.09201004	-0.441138524
2008	36	5	0.56	3.78	1.03	115.4596491	80.53543089	36169	24.12970246	-0.266819602
2008	37	13.33	3.33	10.58	1.38	351.2280702	78.46806049	36303	22.68212622	-0.205930426
2008	38	16.67	1.67	12.54	0.01	536.0421053	45.74489572	36440	25.75517623	0.363555913
2008	39	3.33	-1.11	2.11	0.06	103.8526316	123.2830467	36577	28.23040357	2.950844996
2008	40	2.22	-2.22	1	0.78	96.6877193	138.0326833	36716	27.55214659	1.803412398
2008	41	4.44	-1.67	2.76	0.21	143.4385965	181.0377947	36857	27.65492378	1.298377309
2008	42	-1.11	-16.67	-5.39	0	170.5473684	361.1028676	36999	27.98620207	0.731339896
2008	43	-8.89	-16.67	-11.03	1.95	68.41403509	67.61667071	37143	28.08281987	0.190684083
2008	44	-3.33	-11.67	-5.63	0.53	106.2385965	88.37750422	37287	26.77690949	-0.209047239
2008	45	0.56	-7.78	-1.74	0	138.5403509	386.4039751	37433	26.27099452	-0.414534295
2008	46	2.22	-7.78	-0.53	0	173.5438596	48.00670552	37581	26.0521552	-0.612006688
2008	47	2.78	-11.11	-1.04	0	213.5157895	360.9479711	37729	25.62244752	-0.299991402
2008	48	2.22	-10.56	-1.29	0.58	197.9649123	113.6486708	37879	25.1610975	-0.151163561
2008	49	8.89	-0.56	6.29	0.09	257.7403509	149.1559073	38029	25.30010637	0.119887892
2008	50	8.33	-4.44	4.82	0	295.9298246	268.2594484	38181	22.350756	0.163078025
2008	51	-1.11	-10	-3.56	0	128.9964912	278.4670527	38334	21.327564	0.098793525
2008	52	-3.89	-12.78	-6.33	0.01	106.4491228	408.2062515	38487	20.160948	-0.19727907
2008	53	-2.22	-12.78	-5.13	1.06	132.2526316	81.46348533	38642	19.854336	-0.515904735
2008	54	-2.78	-5.56	-3.54	0.06	46.58245614	206.2048044	38798	20.075304	-0.411221415
2008	55	1.67	-8.89	-1.24	0	172.5333333	423.5156852	38954	20.314308	-0.17214651
2008	56	5	-8.89	1.18	0	247.7824561	333.055432	39111	20.701596	-0.35685733
2008	57	2.78	-5	0.64	0.8	153.2701754	48.759836	39269	21.36018	-0.24401498
2008	58	1.67	-3.33	0.29	0	102.5754386	224.413843	39428	22.152576	-0.37769163
2008	59	-2.22	-11.67	-4.82	1.54	124.0421053	367.6338697	39587	21.331776	-0.309315605
2008	60	1.67	-12.22	-2.15	0.38	197.9789474	241.4387501	39747	19.600104	-0.629861695
2008	61	1.67	-5.56	-0.32	0	135.3192982	267.2369008	39907	19.24392	-0.51580583
2008	62	4.44	-5.56	1.69	0	200.9473684	350.9771139	40068	19.691904	-0.388471495
2008	63	15.56	1.67	11.74	4.65	483.3684211	414.2868009	40230	20.919756	-0.22715855
2008	64	7.78	1.67	6.1	1.32	176.9894737	20.58868093	40392	23.92788	-0.322147545
2008	65	4.44	-2.78	2.46	0	162.1754386	93.01013439	40555	42.854016	0.17939676
2008	66	7.78	-2.78	4.88	1.4	257.2491228	421.6082568	40718	25.956768	1.461668375
2008	67	7.22	-1.11	4.93	1.64	213.8035088	111.9551392	40882	24.460104	1.050895585
2008	68	3.33	-7.22	0.43	0	192.8140351	38.96711007	41046	27.432048	1.8456395
2008	69	0	-6.67	-1.83	0	114.4140351	427.5723125	41210	26.157756	1.53105751
2008	70	6.11	-3.89	3.36	0	223.8807018	307.5047976	41375	23.550852	1.44874571
2008	71	6.11	1.11	4.74	0.01	136.2807018	266.7002889	41540	23.251908	1.79295858
2008	72	4.44	-3.33	2.31	0	170.8210526	151.646709	41705	23.00664	1.7706683
2008	73	13.33	-3.33	8.75	0.31	456.6035088	411.4743253	41870	22.773252	2.6601301
2008	74	15	3.89	11.94	0.04	414.0701754	323.0455086	42036	22.659852	3.382382825
2008	75	10	1.11	7.56	0	265.5368421	247.5309227	42202	23.151792	4.31498916
2008	76	5.56	-3.89	2.96	0	208.5403509	163.6050793	42368	22.85652	4.24478452
2008	77	7.78	-3.89	4.57	0.35	272.2807018	462.9329948	42534	22.613736	4.17827718
2008	78	5.56	2.22	4.64	1.48	93.68421053	53.51101848	42701	22.61244	3.475303505
2008	79	12.78	1.67	9.72	0	362.0140351	76.81797187	42867	24.34584	4.253823395
2008	80	3.89	-2.78	2.06	0	147.677193	336.8751888	43033	23.504412	4.20934939
2008	81	6.11	-2.78	3.67	1.19	207.922807	468.9779398	43200	22.941624	3.980307205
2008	82	5.56	-6.11	2.35	0	235.8736842	285.277683	43366	23.00718	3.231957935
2008	83	6.11	-5.56	2.9	0	244.554386	510.7787885	43533	23.49642	3.196977855
2008	84	5.56	-4.44	2.81	0	216	376.0483535	43699	23.221884	2.331098905
2008	85	9.44	-3.89	5.78	0	324.4350877	479.0154337	43865	22.855656	2.85526708
2008	86	12.22	1.67	9.32	0.34	339.4175439	323.6223883	44032	22.678212	4.08044401
2008	87	6.67	2.22	5.44	0.4	128.1684211	57.97117517	44198	22.596024	3.9195326
2008	88	7.22	-2.78	4.47	0	240.3929825	70.15533215	44363	23.48076	4.77307703
2008	89	7.22	-4.44	4.01	0	262.7508772	531.2154326	44529	23.011932	4.23726651
2008	90	10	-4.44	6.03	0	348.8912281	497.9753216	44695	22.712124	4.173990095
2008	91	13.33	4.44	10.89	0.16	325.3473684	225.2769728	44860	22.535328	4.809537
2008	92	21.11	1.11	15.61	0	779.5157895	172.8890394	45025	22.52172	6.45443466
2008	93	8.33	-2.78	5.28	0.16	274.5263158	466.8634875	45190	22.454976	6.141611625
2008	94	9.44	-2.22	6.24	0.8	302.6736842	317.4336773	45354	22.27872	5.02175
2008	95	11.67	3.33	9.38	0.13	281.5789474	112.3247726	45518	23.433348	5.6682
2008	96	12.22	4.44	10.08	0	277.5157895	277.5338981	45681	23.406348	7.10075
2008	97	15	4.44	12.1	0	401.4596491	405.2141564	45845	22.923912	7.42335
2008	98	8.33	5.56	7.57	0	94.65263158	126.1629535	46007	22.62864	6.8692
2008	99	14.44	6.11	12.15	0	332.6807018	261.7510234	46169	22.480356	7.7144
2008	100	16.11	6.11	13.36	0	414.5754386	256.6507954	46331	22.365444	8.8719
2008	101	20.56	6.67	16.74	0.88	649.7052632	479.4604878	46492	22.240164	10.19095
2008	102	20	11.67	17.71	0.05	459.0105263	143.7465115	46653	22.725624	10.9265
2008	103	18.33	3.89	14.36	0.24	581.7052632	457.5626642	46813	23.362068	11.57935
2008	104	8.33	0.56	6.19	0	218.6315789	169.5090905	46972	22.979748	8.7401
2008	105	10.56	-2.22	7.04	0	340.6947368	401.2751692	47131	22.806192	7.59235
2008	106	15	0	10.88	0	484.5333333	561.5878957	47289	22.547964	7.94165
2008	107	20	2.22	15.11	0	701.6982456	552.2627197	47446	22.334448	8.8012
2008	108	26.11	7.22	20.92	0	1022.021053	554.4629847	47602	22.158192	10.06395
2008	109	28.33	10.56	23.44	0	1130.484211	537.8415763	47758	21.985932	11.82375
2008	110	27.22	12.22	23.1	3.33	984.1192982	416.5839038	47912	21.793368	12.3466
2008	111	15.56	12.78	14.79	0.03	144.8140351	114.7453709	48066	23.14002	11.96155
2008	112	21.11	11.67	18.51	0	532.8070175	275.9571123	48219	23.322324	12.90025
2008	113	22.22	10	18.86	0	666.6666667	413.340583	48370	22.786644	13.34245
2008	114	23.89	10.56	20.22	0	768.9403509	420.1529441	48521	22.471068	13.2891
2008	115	22.22	11.11	19.17	0	629.8245614	519.813544	48671	22.251936	13.44345
2008	116	25	11.11	21.18	2.54	836.3719298	386.4334788	48819	21.984528	13.30905
2008	117	27.22	10.56	22.64	0	1034.203509	392.209431	48966	22.547748	14.7437
2008	118	19.44	7.22	16.08	2.13	568.5824561	410.8230982	49112	23.342736	14.65545
2008	119	11.11	5	9.43	0	217.0666667	85.5561443	49257	24.207168	11.5407
2008	120	13.89	2.78	10.83	0	387.2912281	439.6441772	49401	23.464344	11.30595
2008	121	12.22	3.33	9.78	0	304.245614	404.569364	49543	22.769688	9.6434
2008	122	15	3.89	11.94	0	414.0701754	256.0311173	49683	22.452384	9.24785
2008	123	23.33	9.44	19.51	1.33	761.6350877	312.3472894	49823	22.295892	11.3079
2008	124	19.44	10	16.85	0.15	484.7017544	286.4218775	49960	22.477764	13.06775
2008	125	16.67	2.78	12.85	0	516.7719298	382.8252355	50096	23.45106	12.4557
2008	126	20.56	5.56	16.43	0	674.7789474	539.717107	50231	22.759968	12.18575
2008	127	22.78	8.33	18.81	0	752.9473684	415.900959	50363	22.36566	12.5102
2008	128	26.11	12.78	22.44	0.21	870.1122807	487.7954253	50495	22.039716	12.9852
2008	129	21.11	6.67	17.14	0.99	684.2807018	207.1066688	50624	21.897048	13.98776864
2008	130	12.22	7.78	11	0	179.5649123	103.0653977	50751	22.925748	12.43538679
2008	131	18.33	6.67	15.12	0.28	518.9263158	380.0835348	50877	22.986336	12.16331852
2008	132	16.11	1.11	11.99	2.12	518.3789474	223.787451	51000	22.618812	10.68867365
2008	133	10	2.22	7.86	0	242.4	136.5087242	51122	21.99949963	9.653329626
2008	134	22.22	7.22	18.1	0.12	743.0105263	573.336625	51241	21.94130421	10.71415934
2008	135	21.67	10	18.46	0.01	628.645614	286.9728961	51358	22.46168129	11.47555233
2008	136	22.78	8.89	18.96	1.32	738.0280702	412.6879141	51473	22.90856962	12.82613437
2008	137	11.11	5.56	9.58	0.25	201.5017544	64.68117319	51586	22.34715795	11.78823551
2008	138	18.89	6.67	15.53	0.37	550.5192982	215.1321547	51697	22.07980224	11.0772681
2008	139	15.56	4.44	12.5	0.05	428.0421053	236.0624843	51805	21.99949963	11.02428227
2008	140	12.78	4.44	10.49	0.98	301.1508772	337.4939703	51910	21.94130421	10.41360947
2008	141	12.78	6.11	10.94	0.47	256.322807	149.0528896	52014	22.46168129	9.769319611
2008	142	15	6.11	12.56	0.12	359.3473684	291.2318379	52114	22.99323504	9.776109812
2008	143	13.33	6.67	11.5	0	264.9403509	377.579158	52212	22.84148964	10.4874955
2008	144	18.89	6.11	15.38	0	564.2736842	488.9290166	52308	22.6944228	10.64493505
2008	145	21.67	6.11	17.39	0	731.9578947	530.3457634	52400	22.5245172	11.70602865
2008	146	23.89	9.44	19.92	0	801.9157895	583.9905125	52490	22.38102084	12.32514185
2008	147	29.44	13.89	25.17	0	1131.242105	490.009624	52577	22.25525376	13.68599865
2008	148	27.22	7.22	21.72	0	1109.866667	328.5980403	52662	21.96653736	15.7458
2008	149	19.44	6.11	15.78	0	596.3157895	585.2339268	52743	21.70010568	13.6456541
2008	150	24.44	8.33	20.01	0	871.8105263	570.3446546	52821	21.47264148	12.8332277
2008	151	26.11	12.22	22.29	0.22	889.5859649	459.8854545	52896	21.43465896	13.24891495
2008	152	27.22	17.78	24.62	0	745.4877193	352.9051143	52969	21.702864	16.19585
2008	153	25.56	10	21.28	0	913.1789474	486.2564576	53038	21.124632	15.83315
2008	154	25	13.33	21.79	1.03	757.5298246	542.0388867	53103	20.125956	14.7199
2008	155	27.78	15	24.26	1.13	930.4982456	379.1178573	53166	19.515108	14.92795
2008	156	21.11	17.78	20.19	0	232.4	90.04834194	53225	22.999296	15.8703
2008	157	28.33	19.44	25.89	0	758.1894737	345.9921548	53281	24.3453	17.69855
2008	158	32.78	20.56	29.42	0	1181.515789	525.1338733	53334	23.546424	19.75805
2008	159	33.33	23.33	30.58	0	1067.480702	518.1060825	53383	22.78524	20.3471
2008	160	32.22	22.78	29.62	0	969.2842105	429.2805031	53429	21.925452	20.88285
2008	161	33.89	21.67	30.53	1.2	1251.333333	544.4346842	53471	20.843832	21.20935
2008	162	32.22	15.56	27.64	0	1357.122807	410.0632218	53510	20.10792	20.4175
2008	163	28.33	16.11	24.97	0	934.1684211	575.5212714	53546	21.10692	19.22775
2008	164	30.56	17.78	27.04	0.04	1079.873684	545.3852399	53577	20.17488	19.02045
2008	165	31.67	19.44	28.31	0.07	1115.017544	437.034623	53606	19.615656	19.39675
2008	166	25	15.56	22.4	0	661.0736842	181.2395301	53630	19.564356	19.5199
2008	167	27.22	16.67	24.32	1.49	803.0315789	548.206464	53651	19.620084	19.1311
2008	168	26.67	13.89	23.15	0.01	875.8596491	355.7539921	53669	19.626456	17.9407
2008	169	19.44	13.33	17.76	0.14	352.6877193	299.6079692	53682	21.303804	16.1749
2008	170	18.89	8.89	16.14	0	487.4385965	230.6295793	53693	20.80992	15.14865
2008	171	20	11.11	17.56	0	480.1614035	342.9473361	53699	20.481276	14.20735
2008	172	26.11	13.33	22.6	0.22	849.5789474	471.4200588	53702	20.063856	15.6237
2008	173	28.33	15	24.67	0.81	982.3789474	515.138638	53701	19.402572	16.8744
2008	174	26.67	15.56	23.61	0.11	805.2491228	539.7242811	53696	19.374708	18.0169
2008	175	25.56	12.78	22.04	0	823.9719298	482.1374236	53688	19.315848	17.7385
2008	176	25	13.33	21.79	0	757.5298246	423.956815	53676	19.05816	16.69244455
2008	177	27.22	15	23.86	0.19	879.6982456	441.7024282	53661	18.794424	16.53507709
2008	178	28.33	18.33	25.58	1.16	822.3719298	305.0543614	53641	18.060672	19.77382394
2008	179	26.67	19.44	24.68	0	595.7403509	276.8843134	53619	18.043392	18.86728082
2008	180	28.89	18.89	26.14	0.13	847.0035088	350.0097029	53592	18.52572	20.05335
2008	181	27.22	17.22	24.47	0.05	774.9263158	308.2490012	53562	18.338016	19.3376
2008	182	25.56	15.56	22.81	0	708.1122807	417.4633376	53529	18.181308	18.9632
2008	183	22.78	13.33	20.18	0	584.9122807	300.6619244	53491	17.967792	17.7518
2008	184	27.22	15	23.86	0.02	879.6982456	560.1282857	53451	17.559012	17.6469
2008	185	25.56	18.33	23.57	0.02	561.3684211	231.8553748	53407	16.967388	17.48035
2008	186	23.89	17.78	22.21	2.12	450.7157895	199.8697127	53359	16.668552	17.9903
2008	187	24.44	16.11	22.15	0	587.5438596	256.6897839	53308	19.76988	18.2758
2008	188	27.78	17.22	24.88	0.01	827.3754386	370.6546738	53254	21.0648	19.03245
2008	189	27.22	18.89	24.93	0	682.4421053	297.1433942	53196	20.112996	19.8773
2008	190	30.56	18.89	27.35	0.44	1022.140351	501.4656629	53135	19.061724	20.706
2008	191	26.67	16.11	23.76	0	779.2982456	190.4580091	53071	19.763508	20.2408
2008	192	26.67	15	23.46	0	829.9649123	565.0716361	53004	19.40646	19.67715
2008	193	28.33	16.67	25.12	0	908.1964912	471.9697353	52933	17.55642	18.99085
2008	194	31.11	19.44	27.9	0.33	1052.449123	520.0338063	52860	16.515408	20.29945
2008	195	27.78	17.22	24.88	0	827.3754386	355.3178675	52783	15.819348	21.0425
2008	196	26.67	15.56	23.61	0	805.2491228	522.2584862	52703	15.396636	19.9782
2008	197	28.33	16.11	24.97	0	934.1684211	560.3976055	52620	14.780712	18.9195
2008	198	31.11	17.22	27.29	0	1166.105263	557.7513277	52535	14.235204	19.58915
2008	199	31.67	20	28.46	0.12	1083.508772	438.8623918	52446	13.775016	20.62975
2008	200	32.22	21.11	29.17	0	1081.25614	413.3001242	52355	13.396368	21.18095
2008	201	31.67	20	28.46	0.39	1083.508772	517.5354854	52261	13.045152	21.55435
2008	202	32.22	18.89	28.56	0.38	1208.421053	409.5625719	52164	12.91944	20.95795
2008	203	29.44	18.33	26.39	0.02	934.6666667	405.7065783	52065	12.831636	21.16395
2008	204	28.89	19.44	26.29	1.3	814.6315789	414.7642553	51963	12.415188	21.0514
2008	205	23.33	15	21.04	1.03	552.8491228	134.2814223	51858	12.276408	19.43055
2008	206	25	14.44	22.1	0	711.6350877	347.1107418	51751	12.344016	18.31515
2008	207	27.78	15.56	24.42	0	906.5894737	534.5950002	51642	12.568116	18.77596619
2008	208	28.33	18.33	25.58	0	822.3719298	433.7922375	51530	12.671148	19.35544576
2008	209	27.22	15.56	24.01	0	855.3824561	487.9174592	51417	12.689292	19.9019
2008	210	28.89	17.22	25.68	0	935.6210526	493.0210721	51300	12.5085	19.23745
2008	211	30	17.78	26.64	0.52	1021.207018	475.7485444	51182	12.325008	20.05945
2008	212	29.44	18.33	26.39	0	934.6666667	331.2877091	51062	12.899892	19.7367
2008	213	28.89	17.78	25.83	0	907.4596491	465.3030487	50939	13.381788	20.8136
2008	214	28.33	18.89	25.74	0.01	791.0035088	488.1866181	50815	12.375876	20.1486
2008	215	27.78	16.11	24.57	0	881.4526316	403.8918087	50688	11.929512	20.2156
2008	216	25.56	15	22.65	0	733.6140351	401.7587619	50560	11.611236	19.1711
2008	217	27.78	16.67	24.72	0.1	855.0596491	479.2455879	50430	11.306028	19.2206
2008	218	24.44	19.44	23.07	0.39	394.4982456	146.635572	50298	11.162496	19.4773
2008	219	28.89	16.67	25.53	0.05	962.4561404	530.552428	50164	11.15904	20.61315
2008	220	26.67	14.44	23.31	0.1	853.4947368	348.5250954	50029	10.991748	18.8205
2008	221	23.89	12.22	20.68	0	712.2807018	435.3575924	49892	10.824024	17.9118
2008	222	24.44	13.89	21.54	0.02	690.2175439	512.9065603	49754	10.637508	17.38265
2008	223	25	14.44	22.1	0.04	711.6350877	470.5948724	49614	10.497216	17.5137
2008	224	21.67	14.44	19.68	0	453.9789474	312.5321596	49472	10.343208	17.00075
2008	225	24.44	12.78	21.24	0.55	734.6105263	409.6248125	49330	10.225056	17.6683
2008	226	27.78	13.89	23.96	0	974.7929825	429.6788924	49186	10.49484	17.9102
2008	227	25.56	15.56	22.81	0	708.1122807	329.5958401	49040	12.245628	18.0322
2008	228	25.56	12.78	22.04	0	823.9719298	440.5088354	48894	10.868628	17.7728
2008	229	25.56	14.44	22.5	0	757.9157895	485.5606204	48746	10.207668	17.27935
2008	230	27.22	15	23.86	0	879.6982456	479.3240941	48597	9.937992	17.6468
2008	231	29.44	17.22	26.08	0	991.4596491	519.4066383	48446	9.751584	18.18035
2008	232	26.11	10	21.68	0	957.4807018	374.7148773	48295	9.625332	18.58929042
2008	233	25.56	11.11	21.58	0	880.4421053	558.3377853	48143	9.450048	17.24955165
2008	234	29.44	12.78	24.86	0	1168.575439	536.697562	47990	9.307488	17.2958071
2008	235	30	16.11	26.18	0	1099.087719	528.263379	47836	9.279516	18.75732132
2008	236	27.78	17.78	25.03	0	798.3508772	487.5682976	47681	9.204672	18.75765
2008	237	31.11	18.89	27.75	0.13	1082.968421	468.8788006	47525	9.122484	18.96575
2008	238	27.78	12.78	23.65	0.256919669	1014.603509	525.5087823	47368	9.078528	19.33638419
2008	239	26.11	13.33	22.6	0	849.5789474	521.6431053	47210	8.992668	17.5128489
2008	240	26.67	13.89	23.15	1.931221361	875.8596491	430.7492561	47052	8.911668	17.41485
2008	241	17.78	15.56	17.17	0.154643927	133.9719298	84.78493592	46893	9.230052	16.6106
2008	242	21.11	16.67	19.89	0.019685469	298.2175439	151.1140497	46734	9.993828	17.3095
2008	243	27.22	12.22	23.1	0	984.1192982	303.0324007	46573	10.009164	18.69755
2008	244	27.22	13.33	23.4	0	945.6491228	536.7217159	46413	10.026012	17.6182
2008	245	26.67	12.78	22.85	0	917.2561404	540.0980303	46251	9.93216	17.28785
2008	246	29.44	14.44	25.32	0	1110.919298	528.1481265	46089	9.78042	17.4063
2008	247	30.56	15.56	26.43	0	1179.347368	507.259673	45927	9.644664	18.23675
2008	248	31.67	16.11	27.39	0	1274.596491	481.1607814	45764	9.511932	18.8439
2008	249	31.11	20.56	28.21	0.318008268	986.9403509	451.3041667	45600	9.356412	19.24425
2008	250	22.78	12.78	20.03	0	607.6070175	102.935339	45437	9.315526267	19.5216941
2008	251	25	13.89	21.94	0	735.1508772	420.2074571	45272	9.222242779	18.89395845
2008	252	26.67	13.89	23.15	2.472082587	875.8596491	477.720094	45108	9.160362052	18.32317355
2008	253	20	9.44	17.1	0.025357557	537.7473684	103.7893554	44943	9.211627762	17.86586435
2008	254	21.11	10.56	18.21	0	572.877193	485.4580151	44778	9.266833895	16.7763486
2008	255	20.56	13.33	18.57	2.352550719	426.7087719	303.217672	44613	10.3673378	16.3194652
2008	256	21.11	18.33	20.35	0.222390424	197.4105263	84.06061151	44447	11.89292492	17.4625253
2008	257	24.44	19.44	23.07	0.011863613	394.4982456	200.9966803	44281	11.8755951	18.8934262
2008	258	29.44	18.89	26.54	0	904.1824561	374.1760172	44115	11.741098	20.48538595
2008	259	22.78	11.67	19.72	0	649.7964912	298.3259232	43949	11.54853997	19.8472182
2008	260	20	9.44	17.1	0	537.7473684	226.0229313	43783	11.43676062	17.0993179
2008	261	23.33	10	19.67	0	745.277193	475.0160029	43617	11.34375859	16.496598
2008	262	21.11	7.78	17.44	0	656.7087719	442.9891369	43450	11.21404629	16.6505247
2008	263	20.56	8.33	17.19	0	606.2245614	419.7895989	43284	11.13841429	15.574741
2008	264	21.11	10	18.06	0	591.4526316	409.7163764	43117	12.621576	15.3267
2008	265	24.44	10	20.47	0	827.4035088	407.9027962	42951	12.578376	15.31365
2008	266	19.44	7.78	16.24	0	553.522807	190.3744858	42784	12.451152	15.3428
2008	267	21.11	8.89	17.75	0	625.8315789	410.743606	42618	12.370584	14.7214
2008	268	23.33	9.44	19.51	0	761.6350877	461.1823942	42452	12.140976	14.64315
2008	269	20.56	11.11	17.96	0.003747898	516.3438596	365.7231471	42286	11.867736	14.7417
2008	270	17.78	12.22	16.25	0.523215553	297.5859649	85.06794872	42120	11.726148	14.98
2008	271	21.11	16.67	19.89	2.148666677	298.2175439	146.5197597	41954	11.850456	16.6565
2008	272	22.22	13.89	19.93	0	519.9087719	216.5280942	41788	12.376848	17.7887
2008	273	20.56	10	17.65	0.053687621	555.0736842	270.7031689	41623	13.379952	16.87245
2008	274	18.33	10	16.04	0.125669315	417.4245614	189.9629987	41458	14.09124	14.72015
2008	275	15.56	8.33	13.57	0.004633213	320.5614035	173.7329329	41293	14.501856	13.9001
2008	276	12.78	8.33	11.56	0.021512976	185.5578947	241.5923071	41129	15.048876	12.65225
2008	277	15	5	12.25	0.245488242	388.154386	164.1662924	40964	15.372552	11.9979
2008	278	14.44	6.11	12.15	0.10475532	332.6807018	231.4760913	40801	15.491136	11.2182
2008	279	16.67	7.78	14.22	0	396.3438596	416.6164825	40637	15.740076	12.1258
2008	280	16.67	2.22	12.69	0	526.7087719	375.476627	40474	15.8727	11.93035
2008	281	16.67	2.78	12.85	0.034555732	516.7719298	432.2290881	40312	15.843	10.4685
2008	282	16.67	7.22	14.07	0.052800421	412.7508772	218.5872478	40150	15.764376	11.0458
2008	283	21.67	8.89	18.15	0	662.4070175	389.0816224	39989	15.74148	14.1025
2008	284	21.11	6.11	16.99	0	696.8982456	422.8133725	39828	15.581856	13.1402
2008	285	21.11	5.56	16.83	0	708.7719298	416.9137066	39667	15.458628	12.3683
2008	286	22.78	7.78	18.65	0	767.0315789	407.251139	39508	15.119616	12.72915
2008	287	25	8.89	20.57	0	899.6140351	307.6376782	39349	14.952648	12.97375
2008	288	26.11	8.89	21.37	0.003419935	985.8385965	340.0631778	39191	14.809008	13.6969
2008	289	23.33	12.78	20.43	0.012276874	649.0245614	314.6322343	39033	14.682864	15.47455
2008	290	20	8.89	16.94	0.060760695	555.0877193	96.48724149	38876	14.589768	15.17105
2008	291	12.22	2.78	9.62	0	316.6035088	154.1217459	38720	14.441916	11.8067
2008	292	10.56	-1.11	7.35	0	324.5192982	289.662077	38565	14.299896	9.71505
2008	293	11.67	-1.11	8.15	0	365.1789474	411.4896254	38411	14.100096	8.8219
2008	294	16.11	-0.56	11.53	0.021685473	541.9649123	367.0695802	38258	13.967904	8.32075
2008	295	10.56	2.78	8.42	0	250.8	217.2820028	38106	13.84824	8.8508
2008	296	9.44	0.56	7	0	256.554386	281.3326044	37955	13.798344	8.6595
2008	297	12.22	0.56	9.01	0	359.8245614	390.2720612	37804	13.76346	7.9614
2008	298	13.89	6.67	11.9	2.518724922	290.6175439	167.6808392	37655	13.708704	8.20045
2008	299	14.44	3.33	11.39	0	400.4912281	43.15066521	37507	15.307968	10.13145
2008	300	16.67	3.89	13.15	0.048908441	494.9824561	364.9315329	37361	16.152204	9.15925
2008	301	8.89	3.89	7.51	0.039355786	161.8526316	251.9830713	37215	16.36572	9.41425
2008	302	6.67	1.11	5.14	0.224549745	153.4105263	98.94246176	37071	16.632264	8.0013
2008	303	4.44	-0.56	3.07	0.009507193	122.6666667	103.6515923	36928	16.89222	5.91905
2008	304	8.89	-0.56	6.29	0	257.7403509	369.0951695	36787	17.455116	6.11765
2008	305	18.33	3.33	14.21	0	592.1684211	351.7090076	36647	17.597136	6.9241
2008	306	17.78	4.44	14.11	0	540.7368421	231.4742118	36509	17.739264	9.2709
2008	307	9.44	3.89	7.92	0.00872804	182.1403509	187.2377103	36372	17.945436	8.784
2008	308	14.44	7.22	12.46	0.01	300.322807	258.375031	36237	18.02838	9.2251
2008	309	13.89	8.89	12.51	0	218.3298246	100.4017395	36103	18.105708	9.91035
2008	310	18.33	8.89	15.74	0	454.7368421	257.0485669	35971	18.186276	11.10225
2008	311	20	10	17.25	0	519.4947368	242.4719176	35841	18.256152	12.03555
2008	312	21.67	9.44	18.31	0.24	645.9719298	308.8003248	35713	18.337908	12.4942
2008	313	12.78	4.44	10.49	0	301.1508772	134.4137582	35586	18.37992	11.18095
2008	314	8.33	1.67	6.5	0	195.6070175	146.6516271	35462	18.494616	8.90545
2008	315	3.89	0.56	2.97	0	84.36491228	155.6687512	35339	18.54084	7.33
2008	316	4.44	0	3.22	0.07	111.4736842	123.6229308	35219	18.704352	6.5888
2008	317	10	0.56	7.4	1.44	276.2175439	228.2574359	35100	18.917004	7.1132
2008	318	8.89	5.56	7.97	0.01	115.0035088	38.74857078	34984	20.04258	7.4553
2008	319	11.67	8.33	10.75	0.58	135.8245614	94.88379696	34870	20.894376	8.9628
2008	320	13.33	2.22	10.28	0.05	374.4701754	41.89573923	34759	21.882252	9.84665
2008	321	5	0.56	3.78	0.04	115.4596491	114.7539612	34649	22.352268	7.0304
2008	322	2.78	-3.89	0.94	0	137.4175439	119.3574779	34542	22.374192	5.45965
2008	323	-0.56	-6.67	-2.24	0	103.4105263	215.6341251	34438	22.057212	3.51725
2008	324	0	-5.56	-1.53	0	99.83157895	222.922472	34336	21.693468	2.5636
2008	325	3.89	-2.78	2.06	0.15	147.677193	126.9326752	34237	21.750276	3.3882
2008	326	-1.11	-6.67	-2.64	0	92.70175439	141.2762742	34140	21.724896	3.0426
2008	327	-1.67	-6.11	-2.89	0	74.85614035	179.2016683	34046	21.51516	2.1493
2008	328	2.78	-6.67	0.18	1.34	173.9508772	289.8008482	33954	21.38286	1.91465
2008	329	2.22	-5.56	0.08	0.33	147.7754386	81.5214079	33866	21.420336	1.5204
2008	330	3.89	0	2.82	0	96.26666667	162.728952	33780	21.778248	2.1598
2008	331	1.67	0	1.21	0	39.15789474	90.9198445	33697	23.179224	2.33665
2008	332	5.56	-2.22	3.42	0	183.4526316	263.3917544	33618	23.56392	2.5579
2008	333	5.56	-1.11	3.72	0	164.3087719	229.6326884	33541	23.572452	2.2084
2008	334	5.56	-3.33	3.11	1.09	200.645614	268.2057549	33467	23.628612	2.73103633
2008	335	3.89	0	2.82	0.05	96.26666667	25.89807468	33397	23.912976	2.344013925
2008	336	6.11	0	4.43	0	159.4596491	120.3406043	33329	24.425328	3.269932985
2008	337	2.22	-5	0.24	0	140.3578947	121.3659402	33265	23.722464	2.915501165
2008	338	6.67	-4.44	3.61	0	246.7719298	271.7797253	33204	23.228688	2.13444621
2008	339	7.78	-3.89	4.57	0	272.2807018	29.142883	33146	23.094876	3.150860905
2008	340	-1.67	-8.33	-3.5	0	102.2736842	141.4201015	33092	22.955232	0.94325
2008	341	-1.67	-8.33	-3.5	0.03	102.2736842	134.0420084	33041	22.471932	0.5483
2008	342	-3.89	-9.44	-5.42	0	76.76491228	144.8592732	32993	21.981504	0.28805
2008	343	-1.11	-8.89	-3.25	0.04	118.2526316	78.60147501	32949	21.175716	0.3242
2008	344	11.67	-2.22	7.85	1.43	380.6105263	176.9446656	32909	20.583444	1.9335
2008	345	12.22	-1.11	8.56	2.17	386.2526316	30.39005841	32872	23.60982	2.8442
2008	346	1.67	-1.11	0.9	0.34	62.37894737	20.18929289	32838	25.490748	2.6497
2008	347	1.67	-6.11	-0.47	0	142.4561404	76.9372714	32808	25.874904	1.6741
2008	348	-0.56	-6.11	-2.08	0	96.21052632	241.9216033	32782	24.422196	1.17165
2008	349	9.44	-1.67	6.39	0.28	294.477193	251.2587381	32759	23.758752	2.1757
2008	350	13.89	-1.67	9.61	0.64	459.7824561	70.74098962	32740	24.48894	3.0326
2008	351	1.11	-2.22	0.19	0.73	70.59649123	68.16776678	32724	24.999348	2.53495
2008	352	3.33	-0.56	2.26	0	92.91929825	40.82190022	32712	25.653936	2.15715
2008	353	2.22	-0.56	1.46	3.2	64.64561404	88.91077544	32704	25.719384	2.14395
2008	354	5.56	-4.44	2.81	0	216	15.4468944	32699	26.666976	1.5277
2008	355	-2.78	-5.56	-3.54	0.12	46.58245614	137.640712	32698	26.260464	0.94725
2008	356	1.67	-15.56	-3.07	0	214.0280702	182.3404789	32701	25.048488	0.2457
2008	357	-7.78	-14.44	-9.61	0	66.78596491	261.2881035	32707	23.42892	-0.2073
2008	358	1.11	-11.11	-2.25	3.65	179.6561404	149.4164502	32717	20.057592	-0.324
2008	359	9.44	-0.56	6.69	0	276.5824561	44.81274633	32731	22.358964	-0.01765
2008	360	0	-5.56	-1.53	0.23	99.83157895	173.5758649	32749	26.4459	0.1106
2008	361	2.78	-4.44	0.79	0.13	145.5578947	183.3182179	32770	25.2606	0.51555
2008	362	9.44	0	6.85	0.01	266.8421053	127.746539	32794	26.045436	0.95895
2008	363	12.22	0	8.86	0	369.1719298	142.5615136	32822	26.13972	1.23625
2008	364	6.67	-1.11	4.53	0	196.8912281	258.5131795	32854	25.93398	1.1972
2008	365	3.89	-1.11	2.51	0.08	118.4	262.1079996	32889	25.568724	0.77895
2009	1	1.67	-9.44	-1.39	0	264.1864349	155.0455539	32928	23.954988	0.1808
2009	2	-1.67	-9.44	-3.81	0	252.0662643	277.2813078	32971	22.909764	0.38265
2009	3	5.56	-5.56	2.5	0	338.4527851	154.4734834	33017	22.754676	0.1512
2009	4	1.11	-7.78	-1.33	0	169.1340428	250.4367628	33066	21.708912	0.1299
2009	5	3.89	-7.22	0.83	0.01	266.6382496	130.8097467	33119	21.815292	0.66405
2009	6	3.89	-3.33	1.9	0.83	227.4430348	186.7836925	33175	22.481652	0.36665
2009	7	0	-3.33	-0.92	1.44	50.3711006	35.42534754	33234	24.303936	0.41085
2009	8	2.22	-3.33	0.69	0	165.2672999	35.77024267	33296	25.285224	0.14615
2009	9	-2.22	-5.56	-3.14	0	139.4944835	142.8110425	33362	23.698164	-0.14445
2009	10	-2.78	-5.56	-3.54	1.05	49.44759858	211.1762735	33431	22.130436	-0.04995
2009	11	-0.56	-5.56	-1.93	0	108.3172789	52.56209892	33503	22.153764	0.0175
2009	12	-3.33	-6.11	-4.1	0	119.1433274	124.0813008	33579	22.086372	-0.03665
2009	13	-0.56	-6.67	-2.24	0	110.799546	187.169623	33657	23.38251888	-0.16455
2009	14	0.56	-12.78	-3.11	0.18	98.79150683	92.89187267	33738	23.18381875	-0.63385
2009	15	-7.78	-13.33	-9.31	0.07	98.60923509	191.2382177	33822	22.98189936	-0.3984
2009	16	-8.89	-17.22	-11.18	0	94.76454865	195.8472972	33909	22.74564115	-0.85925
2009	17	-13.33	-18.89	-14.86	0.01	68.80729022	272.8107297	33999	22.36147565	-1.0409
2009	18	-6.67	-19.44	-10.18	0.26	44.73166455	213.4915229	34092	22.13988298	-0.49965
2009	19	-3.33	-7.78	-4.56	0	102.9768209	115.1936116	34187	22.17225446	-0.33075
2009	20	-4.44	-12.22	-6.58	0	118.3555004	198.6965145	34285	22.24576099	-0.34955
2009	21	-3.89	-12.78	-6.33	0	155.8506765	153.4316873	34386	22.21875494	-0.504
2009	22	-4.44	-12.78	-6.74	0	150.5775132	254.0363014	34489	22.11860006	-0.3973
2009	23	4.44	-5.56	1.69	0	233.9671771	303.8885966	34595	23.54759558	-0.22005
2009	24	10.56	-2.78	6.89	0.004	438.592215	286.1560672	34703	25.07835562	-0.41925
2009	25	-1.11	-12.78	-4.32	0.018	108.7026327	191.2816683	34814	23.64631968	-1.3831
2009	26	-7.22	-12.78	-8.75	0.001	107.2715216	133.0920804	34926	22.33697347	-1.36175
2009	27	-2.78	-10.56	-4.92	0.24	153.6160651	253.7081217	35042	22.17082368	-1.05525
2009	28	-2.78	-6.67	-3.85	1.14	67.40931715	137.0974146	35159	22.10500762	-0.79935
2009	29	1.67	-8.33	-1.08	0.004	211.3752309	56.87618346	35278	22.19192774	-0.6729
2009	30	-0.56	-8.33	-2.69	0.089	154.5088648	275.4467797	35400	22.38454704	-0.61825
2009	31	0	-11.11	-3.06	0.001	203.5899768	196.1663711	35523	22.27205165	-0.7296
2009	32	-1.11	-11.67	-4.01	0	164.3049002	324.5517125	35649	22.51886189	-0.5224
2009	33	9.44	-1.11	6.54	0.06	152.2796808	331.9759895	35776	24.03906989	-0.3474
2009	34	3.89	-4.44	1.6	0.067	147.6905964	70.00790976	35905	24.63373949	-0.45035
2009	35	1.67	-8.89	-1.24	0.029	176.1774139	253.5008048	36036	24.51569981	-0.575
2009	36	-3.89	-16.11	-7.25	0	147.1429927	217.5034422	36169	23.80692518	-1.24475
2009	37	-7.22	-15.56	-9.51	0	139.7014676	362.013222	36303	23.72286662	-1.3302
2009	38	3.33	-8.33	0.12	0	237.8874798	360.4623765	36440	24.45167222	-0.50685
2009	39	12.78	-2.78	8.5	0	419.5200398	217.6037947	36577	25.34626992	-0.3338
2009	40	10.56	-2.22	7.04	0	386.0580639	216.7615209	36716	24.98839507	-0.21435
2009	41	7.22	-2.22	4.62	0.158	200.2813618	341.0010853	36857	25.026132	0.1734
2009	42	10	2.78	8.01	0.258	279.2561642	85.07354253	36999	25.38150298	1.6678
2009	43	16.67	5	13.46	0	600.4362025	260.6041515	37143	25.54085654	1.62715
2009	44	6.11	1.11	4.74	0.003	318.3311801	86.93394481	37287	24.91971744	0.91185
2009	45	2.22	-0.56	1.46	0.112	167.2721316	72.22969038	37433	23.188296	0.79895
2009	46	0.56	-5	-0.97	0	227.6195056	123.0332881	37581	24.009096	0.84065
2009	47	2.22	-5.56	0.08	0	272.1943102	351.0557396	37729	24.332016	0.5453
2009	48	0.56	-7.78	-1.74	0	236.7528368	228.1077114	37879	24.5802	0.394
2009	49	3.33	-7.78	0.28	0.63	161.2265878	385.4023245	38029	25.253148	0.2861
2009	50	4.44	-1.67	2.76	0.134	194.6061353	38.35342186	38181	25.18878	0.14865
2009	51	2.22	-8.89	-0.83	0.007	251.1921475	190.9096885	38334	24.42792	-0.23105
2009	52	-3.89	-8.89	-5.26	0	223.1231013	225.5153169	38487	21.761832	-0.2588
2009	53	3.33	-7.22	0.43	0.102	260.7307378	391.3288132	38642	21.834192	-0.16475
2009	54	0	-6.67	-1.83	0.041	229.8927661	202.9565957	38798	22.020276	-0.39515
2009	55	-3.89	-11.11	-5.87	0	188.3726894	209.4387226	38954	23.33476646	-0.6862
2009	56	-0.56	-11.11	-3.46	0	249.314548	429.0285597	39111	23.41560576	-0.2004
2009	57	8.33	-7.22	4.06	0.015	428.006074	414.2311747	39269	23.9399881	0.8801
2009	58	12.78	2.78	10.03	0.745	279.7922266	197.8326063	39428	19.112376	1.52285
2009	59	12.78	-3.89	8.19	0	487.0341169	86.0709829	39587	22.345248	1.4255
2009	60	1.67	-4.44	-0.01	0	345.0601914	354.4487634	39747	24.211488	1.31355
2009	61	3.89	-8.33	0.53	0	354.7241505	289.1103315	39907	25.462452	0.47695
2009	62	-5.56	-13.89	-7.85	0	201.4583111	340.3241739	40068	25.209084	-0.0263
2009	63	-2.22	-13.89	-5.43	0.002	249.8397379	454.3288839	40230	23.095308	-0.23515
2009	64	2.78	-11.11	-1.04	0.007	353.4684994	460.430506	40392	21.63072	0.58505
2009	65	11.67	-7.22	6.47	0	543.6752737	439.2025151	40555	22.785024	3.05665
2009	66	20	8.33	16.79	0.005	744.2677937	296.3650474	40718	27.8796	5.8875
2009	67	21.67	12.78	19.22	1.255	457.0879083	174.0303801	40882	29.65782	7.2846
2009	68	15	6.11	12.56	0.094	356.2603444	44.59771963	41046	29.672184	5.77055
2009	69	10	1.67	7.71	0.069	242.4558126	118.2215482	41210	28.664868	4.1149
2009	70	7.22	2.22	5.85	0.024	404.9297895	78.0172568	41375	28.304796	6.0171
2009	71	17.22	-2.78	11.72	0	795.2153365	390.1841358	41540	28.474788	3.4573
2009	72	2.78	-5	0.64	0	319.2155879	317.3720177	41705	28.153596	3.59265
2009	73	6.67	-5	3.46	0	326.2932209	466.8058276	41870	27.755616	4.2946
2009	74	11.11	-1.11	7.75	0	333.8742675	389.5550718	42036	27.29208	6.2411
2009	75	13.89	2.22	10.68	0.775	274.9745386	392.044595	42202	27.649668	5.90865
2009	76	11.67	3.33	9.38	0.004	267.5401823	124.9391758	42368	28.3845	6.5087
2009	77	12.78	2.78	10.03	0	448.9978894	256.0915503	42534	27.920856	7.54365
2009	78	22.78	3.89	17.58	0.004	1053.709672	434.3761973	42701	27.709068	7.93725
2009	79	12.78	-2.22	8.65	0.004	629.3741589	321.2826183	42867	28.179624	4.8386
2009	80	6.67	-6.11	3.15	0	449.3988361	337.8049172	43033	27.63822	3.7937
2009	81	8.33	-6.11	4.36	0	434.1245019	406.4468056	43200	28.035336	4.4981
2009	82	12.22	-3.33	7.94	0	772.7372812	355.0930683	43366	27.315624	4.6879
2009	83	7.78	-6.67	3.81	0.003	602.8603107	528.8867755	43533	27.621696	4.2393
2009	84	8.89	-6.11	4.76	0.002	618.5631465	512.8243438	43699	27.205572	4.01
2009	85	10	2.22	7.86	1.215	109.8442733	258.5353699	43865	27.761664	4.5426
2009	86	5.56	1.67	4.49	0.041	272.2866165	45.54219658	44032	28.813044	6.54485
2009	87	14.44	2.78	11.24	0.027	168.8633258	400.4028463	44198	28.310196	7.2782
2009	88	12.22	7.22	10.85	0.698	227.6366565	89.91249465	44363	28.397136	7.4691
2009	89	10.56	1.11	7.96	0.059	343.3438813	145.1713041	44529	28.514208	5.2706
2009	90	3.89	0	2.82	0	353.6276041	159.5307081	44695	28.714548	7.061
2009	91	16.11	0.56	11.83	0.718	256.8713881	507.5134195	44860	28.315704	6.59755
2009	92	8.89	6.11	8.13	0.026	314.3319836	105.789628	45025	28.365168	9.82595
2009	93	18.89	6.67	15.53	1.816	278.580352	461.6348971	45190	28.861428	10.06715
2009	94	15.56	3.33	12.19	0	640.2511348	79.33589099	45354	28.611948	8.01605
2009	95	8.89	2.22	7.06	0	645.7900798	374.2813173	45518	28.57998	8.8121
2009	96	18.89	2.78	14.46	0.639	490.0568742	525.2196537	45681	28.38288	8.8786
2009	97	12.22	-1.11	8.56	0.01	442.7006644	176.3503981	45845	28.751052	5.34605
2009	98	3.89	-0.56	2.67	0.002	422.2031368	243.2642859	46007	28.682148	5.86485
2009	99	10	-0.56	7.1	0	604.6907822	351.3453616	46169	28.404804	6.63765
2009	100	15	1.11	11.18	0.185	399.0540823	542.5718849	46331	28.119468	6.42925
2009	101	9.44	3.89	7.92	0.204	503.8963151	102.5447389	46492	28.434828	8.3508
2009	102	12.78	-1.11	8.96	0	778.1438675	444.5026901	46653	28.419816	6.8843
2009	103	10	-2.78	6.49	0.484	547.4747602	572.1304552	46813	28.089012	6.23085
2009	104	12.78	-1.11	8.96	0.798	119.0061886	368.7307332	46972	28.815312	6.35395
2009	105	7.78	5	7.01	1.14	116.3689887	46.34452908	47131	29.66538	6.71545
2009	106	7.78	-0.56	5.49	0.002	416.5154791	127.4696864	47289	28.96392	8.263
2009	107	18.33	1.11	13.6	0	1103.46758	564.2099018	47446	28.549092	9.434
2009	108	21.11	4.44	16.53	0	1361.317267	569.9938238	47602	27.776352	10.73925
2009	109	23.33	10.56	19.82	0.033	1347.874024	541.9207463	47758	27.342192	11.48475
2009	110	20	5	15.88	1.229	348.6805386	298.7421523	47912	28.020324	8.53885
2009	111	7.78	4.44	6.86	0.205	175.0739881	73.9256231	48066	28.581708	9.64815
2009	112	17.22	5	13.86	0.023	482.297071	306.7959311	48219	28.321644	8.0201
2009	113	11.11	2.22	8.67	0.144	464.8843314	330.8135415	48370	28.023456	8.2378
2009	114	12.78	3.33	10.18	0.03	606.7031419	394.161765	48521	28.030908	10.07755
2009	115	23.89	5	18.69	0	1212.598359	434.9593392	48671	27.377724	13.44845
2009	116	30	13.89	25.57	0	2066.634528	432.1242549	48819	27.078996	15.4199
2009	117	31.11	15	26.68	0	2221.143246	546.1681371	48966	26.87628	16.6924
2009	118	32.22	16.67	27.94	0	1939.849546	541.3218154	49112	26.80608	16.61495
2009	119	29.44	6.67	23.18	0.002	1225.275917	493.4652334	49257	26.858676	14.2795
2009	120	19.44	7.22	16.08	0.14	512.5185758	402.8471893	49401	26.709852	12.23525
2009	121	17.22	11.11	15.54	0.847	329.7594936	118.7372182	49543	27.243048	13.7127
2009	122	21.67	11.11	18.76	0.069	726.5510594	233.1827788	49683	28.24842	13.7158
2009	123	17.78	8.33	15.18	0.265	280.056739	326.1133011	49823	28.206192	11.42315
2009	124	14.44	8.33	12.76	1.5	146.8725817	177.5458567	49960	29.115336	11.3899
2009	125	11.11	9.44	10.65	0.855	196.1258044	78.52561083	50096	28.893288	11.3632
2009	126	13.33	9.44	12.26	1.376	211.5938044	127.9462881	50231	29.280252	12.7065
2009	127	18.89	11.11	16.75	0.022	522.6763283	230.7450906	50363	29.729424	13.96055
2009	128	21.11	11.11	18.36	0.236	366.700773	325.696267	50495	29.134992	13.47535
2009	129	22.22	12.78	19.62	0.009	757.6694342	263.7159845	50624	29.13132	14.87645
2009	130	24.44	8.89	20.17	0	1085.621956	307.7087545	50751	28.544988	12.8034
2009	131	15.56	6.11	12.96	0.034	368.7424103	261.8315742	50877	28.316568	10.9141
2009	132	15.56	3.89	12.35	0	620.5911312	217.8732941	51000	27.948288	11.06935
2009	133	16.67	4.44	13.31	0.031	702.4807696	483.4381675	51122	27.472224	11.7018
2009	134	21.67	7.22	17.69	1.619	282.4456908	479.5092992	51241	29.308224	12.9502
2009	135	20	11.11	17.56	0	606.2392927	242.6118813	51358	29.567748	14.9736
2009	136	24.44	11.11	20.78	1.91	472.1160068	503.6610067	51473	29.947908	15.93785
2009	137	26.11	7.78	21.07	0.002	1279.800578	327.6518823	51586	30.907056	13.7441
2009	138	15	3.89	11.94	0	799.4811004	499.9752597	51697	29.563104	11.4096
2009	139	15.56	2.78	12.04	0.002	674.835982	604.3722614	51805	28.8165	11.60155
2009	140	22.22	5.56	17.64	0	1029.752062	598.2218455	51910	28.075836	13.29635
2009	141	28.33	11.11	23.6	0	1433.767087	585.7771946	52014	27.81588	14.47485
2009	142	29.44	13.89	25.17	0	1243.95323	597.8737192	52114	27.555168	15.2324
2009	143	28.89	15.56	25.22	0.098	798.0652995	447.9868996	52212	27.393492	16.14895
2009	144	27.78	15.56	24.42	0.436	616.3887921	352.2021679	52308	26.938488	16.5265
2009	145	29.44	16.11	25.78	0	1196.570604	385.4783015	52400	26.85036	16.9892
2009	146	26.11	12.22	22.29	0.592	513.7200429	532.2553629	52490	26.95512	13.59015
2009	147	12.78	9.44	11.86	0.188	127.795897	92.49831675	52577	27.628176	12.8956
2009	148	16.67	10.56	14.99	1.821	156.1560378	162.9570088	52662	28.339896	14.9759
2009	149	22.78	16.67	21.1	0.003	345.4430767	231.3654703	52743	30.692676	15.76385
2009	150	20	12.78	18.01	0.005	761.5117931	184.9645217	52821	28.781076	15.0694
2009	151	21.67	10	18.46	0.001	917.7313413	544.0036298	52896	28.285356	14.15235
2009	152	21.11	5	16.68	0.003	748.3944377	546.4939115	52969	27.770088	12.93535
2009	153	22.78	8.33	18.81	0.562	391.0654887	477.6434632	53038	28.510536	15.14565
2009	154	23.89	15.56	21.6	1.448	162.8550763	323.5355818	53103	29.737092	14.49125
2009	155	16.67	11.11	15.14	0.002	320.1857322	54.65613362	53166	30.32634	13.90945
2009	156	17.78	11.11	15.94	0.664	142.9780977	217.9634382	53225	30.513072	13.53525
2009	157	14.44	12.22	13.83	0.002	457.0342452	73.79384771	53281	29.502948	15.60545
2009	158	24.44	12.78	21.24	0	781.4197036	556.5243934	53334	29.26578	16.229
2009	159	27.22	15.56	24.01	1.188	665.3370689	531.5557575	53383	27.927876	17.18125
2009	160	27.78	18.33	25.18	0.802	607.6812536	390.751633	53429	29.66592	18.16575
2009	161	28.33	16.67	25.12	0.057	534.0691892	371.963008	53471	28.772328	17.57
2009	162	25	17.78	23.01	1.03	246.4732931	323.1155111	53510	28.715088	17.133
2009	163	22.22	17.78	21	0.405	384.3381698	157.7462929	53546	29.473356	17.67305
2009	164	23.89	16.11	21.75	0.008	696.7668218	266.0981391	53577	29.05248	17.7293
2009	165	25	11.11	21.18	0.015	901.0650168	364.0599933	53606	29.825436	16.94635
2009	166	25	12.78	21.64	0	948.8202684	561.4360619	53630	28.125192	16.6397
2009	167	26.67	15	23.46	0	568.0934847	550.5218356	53651	27.372	16.0526
2009	168	22.22	15.56	20.39	2.058	280.2558962	188	53669	28.672752	15.25145
2009	169	16.67	13.89	15.9	0.269	268.2314446	135.68088	53682	29.592048	15.93805
2009	170	21.67	15.56	19.99	0.159	551.8582417	214.8344291	53693	28.637976	16.9544
2009	171	24.44	16.11	22.15	3.874	322.3490787	340.8653606	53699	29.051832	17.6274
2009	172	24.44	16.67	22.31	0.251	646.0100973	146.2408476	53702	27.95898	17.59335
2009	173	23.89	15.56	21.6	0	828.393316	276.2871455	53701	26.919156	18.3034
2009	174	27.22	15.56	24.01	0	1047.297317	400.843899	53696	25.962168	18.4716
2009	175	27.22	14.44	23.71	0	1122.611537	558.2149084	53688	25.187484	18.63835
2009	176	29.44	16.11	25.78	0.001	996.8158224	575.9127916	53676	24.558276	18.90705
2009	177	30.56	18.89	27.35	0.159	778.0274218	507.4936546	53661	23.26534769	19.2404532
2009	178	26.67	15.56	23.61	0	921.1815165	403.7957905	53641	22.26217951	18.76792165
2009	179	26.67	15.56	23.61	0.429	359.5379371	491.8327086	53619	21.30916223	17.5410854
2009	180	21.11	13.89	19.12	0.045	571.5133907	116.2824116	53592	22.45782809	17.88396085
2009	181	26.11	15.56	23.21	1.334	317.4763943	487.6221388	53562	24.36896783	17.8429776
2009	182	22.78	13.89	20.33	0.776	384.479247	309.9693998	53529	26.44542537	17.58398475
2009	183	24.44	15	21.85	0.26	292.929466	338.1314988	53491	27.55309963	17.6624384
2009	184	22.22	15.56	20.39	0	508.6422429	242.0939926	53451	27.521472	17.59755
2009	185	22.22	15	20.24	0	843.0129499	313.2517086	53407	27.077268	17.7000743
2009	186	23.33	11.11	19.97	0	777.5442578	469.425514	53359	27.360876	17.03026193
2009	187	23.89	12.22	20.68	0	853.5576772	547.6865574	53308	26.202036	16.87731868
2009	188	27.22	13.89	23.56	0	1176.476636	523.280993	53254	24.39768	17.24387566
2009	189	26.11	11.67	22.14	0	808.670287	512.0840101	53196	23.56986	16.31799692
2009	190	22.78	12.78	20.03	0	719.4379253	403.718453	53135	21.846828	16.63737855
2009	191	26.11	13.89	22.75	0	704.8211986	450.6709691	53071	21.387828	17.0398929
2009	192	26.11	16.67	23.51	1.4	447.6598914	412.1833069	53004	19.929504	17.67706404
2009	193	25.56	17.22	23.26	0	901.6685182	259.7328699	52933	20.521992	18.25643243
2009	194	25	14.44	22.1	0	1029.287788	547.7308551	52860	21.170856	17.15420613
2009	195	24.44	11.11	20.78	0	973.6450359	547.9027907	52783	20.920836	16.22294918
2009	196	25	11.11	21.18	0.009	832.3341124	585.0799195	52703	19.176636	16.45055554
2009	197	27.78	13.33	23.81	0	986.6266601	537.9431965	52620	18.390288	19.02363452
2009	198	30	18.33	26.79	1.307	450.5324709	469.2875036	52535	17.494428	17.48684621
2009	199	22.78	13.89	20.33	0.022	540.2532892	156.5801205	52446	20.888976	17.00084109
2009	200	20.56	13.33	18.57	0.023	532.8747459	291.0120141	52355	20.12088	16.80733206
2009	201	23.89	14.44	21.29	0.016	675.0930108	439.14927	52261	19.507332	16.99395202
2009	202	26.11	15.56	23.21	0.217	693.6484257	380.9887854	52164	17.918976	18.04754103
2009	203	25	15.56	22.4	0.694	372.1661505	389.7421492	52065	20.180604	17.82369202
2009	204	25	16.67	22.71	2.02	320.5875517	253.5307815	51963	22.282392	18.83719471
2009	205	25.56	17.22	23.26	0.165	532.685326	273.2542134	51858	27.217236	18.72012958
2009	206	26.11	15	23.06	0.655	481.6771529	418.1852331	51751	26.619024	18.1838629
2009	207	27.78	16.67	24.72	0.022	476.1631711	384.4510476	51642	28.485264	18.85250537
2009	208	26.11	18.33	23.97	0.001	732.9878967	324.7343295	51530	26.883084	18.99845702
2009	209	27.78	17.22	24.88	0	788.7211924	458.2545462	51417	24.510324	19.02823297
2009	210	28.89	18.33	25.99	1.24	256.614042	470.5817154	51300	24.535164	18.6788
2009	211	22.78	18.33	21.56	0	508.5388685	163.5237584	51182	26.895612	19.7427
2009	212	27.78	19.44	25.49	1.467	246.626154	365.4246602	51062	28.247448	19.42985
2009	213	22.22	16.67	20.69	0.003	528.009103	122.565441	50939	27.685632	19.82405
2009	214	27.22	17.22	24.47	0.12	503.28073	506.6144249	50815	26.9832	19.6234
2009	215	25.56	14.44	22.5	0.001	667.5599216	272.2438644	50688	26.278392	18.82585
2009	216	25.56	15.56	22.81	0	624.4665166	507.4447785	50560	25.272804	18.9156
2009	217	28.33	16.67	25.12	0	756.4169314	494.616855	50430	24.140964	19.26415
2009	218	26.11	12.78	22.44	0.004	846.0942866	320.9862619	50298	24.383424	17.57985
2009	219	25	12.22	21.49	0	668.5008427	428.4242485	50164	23.379564	16.92305
2009	220	24.44	13.89	21.54	0.277	634.6702583	421.8924624	50029	21.923184	17.7314
2009	221	26.11	16.11	23.36	0.177	442.6475989	406.1789064	49892	21.49032	19.59875
2009	222	29.44	20	26.85	0.418	806.3058002	245.3757889	49754	19.808976	21.05025
2009	223	32.22	20	28.86	0.038	614.5217081	433.2942315	49614	19.115508	20.4172
2009	224	27.78	18.33	25.18	1.84	449.6914643	273.9751375	49472	19.923024	19.65965
2009	225	26.67	16.67	23.92	0	530.6079843	277.6136834	49330	24.885948	19.4836
2009	226	26.67	17.78	24.22	0	626.9497425	466.979425	49186	23.789964	19.73465
2009	227	28.89	17.78	25.83	0.002	794.0750932	471.8079119	49040	22.219536	20.2991
2009	228	30.56	19.44	27.5	0	901.5865104	517.4930666	48894	20.237196	20.1106
2009	229	31.11	20	28.06	0.002	1105.731535	512.0612768	48746	18.63858	20.62407613
2009	230	32.78	20.56	29.42	0.451	611.56991	520.5570508	48597	17.572404	20.54611811
2009	231	30.56	20.56	27.81	0.002	676.9374703	353.0740618	48446	17.29884	21.0753
2009	232	29.44	20	26.85	0	749.152435	335.0939435	48295	16.930452	21.13647586
2009	233	29.44	20.56	27	0.488	492.655685	360.8208255	48143	16.67298	21.29540684
2009	234	26.67	18.89	24.53	0	559.8637232	286.8407377	47990	16.738752	20.72110562
2009	235	26.67	17.78	24.22	0	846.3101499	300.8905427	47836	16.331052	20.14366942
2009	236	25.56	14.44	22.5	0	576.5525923	432.6559426	47681	16.250052	18.72811427
2009	237	25.56	14.44	22.5	0	667.7699726	383.9634929	47525	15.689424	18.69208006
2009	238	27.22	16.11	24.17	0	897.3468059	508.4194604	47368	15.527748	19.06445444
2009	239	28.89	17.22	25.68	0.027	534.4074612	462.4241898	47210	15.123072	19.28960558
2009	240	19.44	16.67	18.68	1.252	219.3969411	128.512093	47052	14.732004	18.53889205
2009	241	20	16.67	19.08	1.77	330.555097	72.7311539	46893	22.647648	19.21579477
2009	242	26.11	14.44	22.9	0	761.1388359	320.4080541	46734	23.938248	17.59316645
2009	243	22.22	11.11	19.17	0.001	540.8998917	480.1938247	46573	21.594648	15.94788898
2009	244	18.89	7.78	15.83	0	474.5543285	398.0785771	46413	20.600724	14.87805
2009	245	20.56	8.33	17.19	0	529.277754	538.6507319	46251	20.066556	14.7677
2009	246	23.33	10	19.67	0	586.9153305	521.0623576	46089	18.696684	15.1667
2009	247	23.89	10.56	20.22	0	627.404906	512.5118558	45927	17.389452	15.92325
2009	248	25	12.22	21.49	0	667.4029684	508.0795167	45764	17.537196	16.50525
2009	249	25.56	12.78	22.04	0	723.5662468	474.4047149	45600	16.344768	16.49555
2009	250	25	13.89	21.94	0.01	385.7817956	454.5401105	45437	16.29012	16.8521
2009	251	20	17.22	19.24	0.004	409.4359562	150.4898834	45272	15.891276	17.21795
2009	252	22.22	16.11	20.54	0.006	474.4212481	208.9722001	45108	15.95586	17.2582
2009	253	22.78	15	20.64	0.008	708.5729684	236.9511826	44943	15.788676	16.5751
2009	254	20	12.78	18.01	2.075	218.3804631	440.6224485	44778	17.88852	14.58835
2009	255	15	12.22	14.24	0.053	192.5441047	62.22258086	44613	23.633364	15.6608
2009	256	19.44	13.89	17.92	0.01	587.8569736	106.9569825	44447	21.682992	16.899
2009	257	24.44	15	21.85	0.005	598.2023368	477.8696958	44281	19.189164	17.25015
2009	258	23.89	13.89	21.14	0	456.242422	328.4017228	44115	18.211764	16.7465
2009	259	24.44	11.67	20.93	0	743.9274831	297.3866755	43949	17.019552	16.145
2009	260	19.44	11.67	17.31	0.013	315.1932069	387.5532056	43783	14.928132	15.28495
2009	261	16.11	13.89	15.5	0.014	481.6589997	79.71882523	43617	14.679516	16.2616
2009	262	23.33	10	19.67	0.016	668.9773209	431.1204143	43450	14.01996	14.97505
2009	263	20	5.56	16.03	0	394.0091204	511.4600545	43284	13.755144	14.0645
2009	264	23.33	6.11	18.6	0	470.319669	419.366955	43117	13.240416	15.6135
2009	265	23.89	14.44	21.29	0.077	413.0755619	425.1073549	42951	13.166328	16.7677
2009	266	23.33	18.33	21.96	0.461	323.0048201	146.6952599	42784	13.336752	18.005
2009	267	26.11	17.78	23.82	0.001	550.8505766	287.909733	42618	13.732896	18.18825
2009	268	22.78	13.33	20.18	0.001	766.0699265	209.8487704	42452	13.372392	16.57845
2009	269	20	12.22	17.86	3.541	393.1857879	423.0745637	42286	15.282804	14.1453
2009	270	14.44	11.67	13.68	1.124	97.59836475	66.51524217	42120	26.226228	14.3687
2009	271	16.67	12.22	15.44	0.783	392.4936873	144.1699004	41954	26.377536	13.8875
2009	272	20	11.11	17.56	0.005	614.0463142	258.0364698	41788	24.690792	13.03765
2009	273	13.89	10.56	12.97	0.001	474.1497003	80.00398818	41623	23.360232	12.8359
2009	274	13.33	6.67	11.5	0	425.1628331	226.9404458	41458	22.626588	11.4835
2009	275	12.78	3.89	10.33	0.968	132.6601074	243.7642458	41293	22.960092	10.7612
2009	276	15	5	12.25	0.041	279.36355	215.6805174	41129	25.377996	12.99595
2009	277	18.89	7.78	15.83	0	395.4028318	364.3781369	40964	23.513484	12.0185
2009	278	15.56	7.78	13.42	0	431.4231722	216.5545207	40801	22.769796	11.7684
2009	279	15.56	4.44	12.5	0.002	370.5361453	299.5252848	40637	21.17982	11.32255
2009	280	17.78	5	14.26	0.275	564.702324	375.2800316	40474	20.525664	12.43275
2009	281	13.33	7.78	11.81	0.002	466.8655743	216.561148	40312	19.896564	12.14955
2009	282	18.33	8.33	15.58	1.539	171.0742548	346.520797	40150	23.097144	12.92075
2009	283	17.78	11.67	16.1	0.051	390.5188521	98.41761484	39989	24.893292	13.10905
2009	284	14.44	5	11.85	0	373.7990604	209.3787285	39828	24.75192	10.3938
2009	285	12.78	3.89	10.33	0	340.3996733	336.8411526	39667	24.06882	9.37385
2009	286	9.44	3.89	7.92	0.014	283.6007623	134.8980966	39508	22.56438	10.0573
2009	287	13.33	0	9.67	0	252.7312396	155.3075809	39349	23.166696	8.38545
2009	288	7.22	0.56	5.39	2.875	65.32204503	143.7659156	39191	27.036876	7.2423
2009	289	3.89	-0.56	2.67	1.015	39.74306619	41.64829759	39033	29.92458	5.8772
2009	290	1.67	0	1.21	0.716	44.46893486	105.1623624	38876	29.555112	6.36915
2009	291	3.89	0	2.82	0.051	193.5736985	86.93755165	38720	27.976152	7.28405
2009	292	10	-1.11	6.94	0	279.1027575	257.0438221	38565	27.014412	6.8181
2009	293	12.78	0	9.26	0	396.3782907	402.2132462	38411	26.201172	8.51305
2009	294	19.44	6.67	15.93	0	513.2498888	342.0583407	38258	25.156056	9.61805
2009	295	21.11	7.78	17.44	0	743.1655047	279.9480397	38106	25.08672	10.5356
2009	296	21.67	8.33	18	1.851	421.5513789	314.7272296	37955	25.851252	11.2232
2009	297	17.22	11.11	15.54	6.417	347.2655167	117.1349064	37804	37.290072	12.3788
2009	298	18.33	6.67	15.12	0	724.291248	136.2429425	37655	32.046672	10.7602
2009	299	15	2.78	11.64	0	419.3229011	365.9718719	37507	27.920748	9.57615
2009	300	15.56	3.33	12.19	0.546	201.9614038	343.4797248	37361	27.395544	9.81235
2009	301	13.33	7.78	11.81	0.801	131.5099396	136.5894397	37215	29.183916	11.2385
2009	302	15	11.11	13.93	0	246.9586021	83.21016428	37071	27.71382	11.75305
2009	303	13.33	10	12.42	0.014	246.492101	79.03531196	36928	27.215724	11.49
2009	304	14.44	11.11	13.53	0.11	391.4013184	58.89743659	36787	27.079968	11.76355
2009	305	16.67	5.56	13.61	0	645.7503674	58.59573771	36647	27.24348	10.3931
2009	306	11.67	-0.56	8.31	0	308.9746219	300.2259717	36509	27.286896	8.59645
2009	307	12.78	0	9.26	0.053	442.227101	341.7961344	36372	27.014736	8.43725
2009	308	12.22	-1.11	8.56	0.003	384.6979668	277.2042388	36237	27.314004	7.15355
2009	309	7.78	-1.11	5.33	0.076	213.3716827	194.7745617	36103	28.338168	6.94155
2009	310	7.22	0.56	5.39	0	391.6988879	113.8939145	35971	28.258464	6.2898
2009	311	7.78	-2.22	5.03	0	335.0895566	336.1670712	35841	26.56578	5.9685
2009	312	13.33	-2.22	9.06	0.001	394.3304765	306.7477949	35713	26.564376	8.16835
2009	313	21.11	5.56	16.83	0	457.0171514	315.5840499	35586	26.287464	8.77955
2009	314	19.44	5.56	15.62	0	543.8915295	189.9116237	35462	25.81518	9.5795
2009	315	14.44	5.56	12	0.015	742.7692553	138.9815218	35339	25.776192	8.9022
2009	316	10.56	2.22	8.26	0	635.896958	173.1909481	35219	26.136912	8.04235
2009	317	10	2.78	8.01	0	609.4263692	186.6418803	35100	25.470552	9.165
2009	318	15.56	5	12.65	0.004	362.9603322	271.4951978	34984	25.451436	10.6198
2009	319	14.44	4.44	11.69	0.001	298.1035457	133.4935475	34870	25.552848	10.4167
2009	320	19.44	5.56	15.62	0	734.7430277	276.6466239	34759	25.452624	10.21315
2009	321	12.78	5.56	10.79	0	794.3924701	289.2625473	34649	25.566132	9.13115
2009	322	8.89	2.78	7.21	0	365.799792	100.9619594	34542	27.099624	8.0337
2009	323	10	4.44	8.47	1.256	110.5722992	173.5931529	34438	27.151788	9.20195
2009	324	11.11	6.11	9.74	0	439.1936874	54.9111137	34336	28.305552	9.10045
2009	325	10	5	8.62	0	315.3315028	191.1826679	34237	27.770844	8.61755
2009	326	10.56	5	9.03	0	191.8939447	116.415993	34140	29.332308	7.42215
2009	327	8.33	3.89	7.11	0.257	215.7106532	80.56611643	34046	28.652124	7.6927
2009	328	9.44	4.44	8.07	0.473	79.92162581	92.74624492	33954	29.658252	8.65685
2009	329	9.44	6.67	8.68	0.026	100.914755	76.33266403	33866	28.871472	8.86125
2009	330	10.56	2.22	8.26	0.686	98.29357923	92.60408526	33780	28.844364	8.0328
2009	331	10	2.22	7.86	0.048	323.7376413	140.3104727	33697	29.461368	6.6468
2009	332	5.56	1.67	4.49	0.009	219.0044832	100.8761378	33618	28.968888	5.5405
2009	333	5	0	3.62	0.023	273.8465278	97.60299335	33541	28.465284	5.6978
2009	334	16.11	0.56	11.83	0.104	443.3355542	253.7934981	33467	28.0686	7.27225
2009	335	11.11	-0.56	7.9	0	346.3394737	63.40611432	33397	30.08172	5.013
2009	336	6.11	-2.22	3.82	1.114	74.259888	119.4484083	33329	30.036792	4.32405
2009	337	12.78	-1.67	8.81	0.442	269.6985342	68.63177514	33265	30.753804	6.84645
2009	338	11.67	2.78	9.22	0.002	404.3970804	58.21304662	33204	31.046052	5.4088
2009	339	5	-1.11	3.32	0.467	103.075495	140.8872262	33146	30.261756	3.7398
2009	340	0.56	-3.89	-0.67	0.001	169.5391919	39.108425	33092	28.241724	3.2568
2009	341	0.56	-5.56	-1.12	0.004	114.5965167	283.8162586	33041	28.290216	2.5602
2009	342	1.11	-5.56	-0.72	0.921	191.6584817	88.95050465	32993	28.522416	3.20735
2009	343	3.33	-1.11	2.11	2.348	93.08141013	218.1263771	32949	29.29602	2.6833
2009	344	6.11	-3.33	3.51	0.001	362.2057389	154.7091677	32909	29.238024	2.08905
2009	345	-2.22	-10	-4.36	0	241.5653984	166.6408798	32872	28.621452	0.9998
2009	346	-2.78	-9.44	-4.61	0	243.8525446	204.1721177	32838	27.890076	0.8279
2009	347	2.22	-5.56	0.08	1.665	137.7923547	275.3377835	32808	28.620912	1.11355
2009	348	5	-0.56	3.47	0	126.5436996	51.09499115	32782	30.135612	1.7291
2009	349	7.78	2.78	6.4	0.152	169.7839001	131.1490583	32759	30.070164	2.2182
2009	350	7.78	-3.89	4.57	0.005	351.5186021	52.82345754	32740	29.144712	1.33815
2009	351	-1.11	-7.22	-2.79	0.001	194.6349855	233.9156582	32724	28.346592	0.6623
2009	352	-1.67	-6.67	-3.04	0	190.6060358	212.0011005	32712	28.55623226	0.9781041
2009	353	0	-6.67	-1.83	0.775	69.38089985	178.18591	32704	28.30609097	1.0724188
2009	354	-4.44	-7.22	-5.21	0.005	141.3702265	62.00299703	32699	28.13583513	1.34780495
2009	355	0	-6.11	-1.68	0.002	163.3830332	250.2578751	32698	28.07242606	1.50747995
2009	356	0.56	-3.33	-0.51	0.005	181.8306143	200.249656	32701	28.23469336	1.6061591
2009	357	1.11	-9.44	-1.79	0	198.3102232	114.6239031	32707	27.88020172	0.74700115
2009	358	-1.67	-9.44	-3.81	0	130.5850733	276.4927713	32717	28.07117785	0.59158415
2009	359	0	-5.56	-1.53	0.784	66.77951248	271.6298005	32731	28.69453393	0.84365775
2009	360	6.11	-1.67	3.97	1.86	54.83178188	43.00454976	32749	30.58906706	1.9840566
2009	361	6.67	-2.78	4.07	0.001	160.2968077	50.7335978	32770	29.9075444	2.70163605
2009	362	5	-2.78	2.86	0.024	256.0515326	196.5332378	32794	29.22801888	1.56155655
2009	363	-2.22	-7.78	-3.75	0.037	202.1849359	131.618122	32822	28.60066853	0.29480155
2009	364	-4.44	-9.44	-5.82	0	146.7228171	227.6367566	32854	27.77260602	0.09637875
2009	365	-1.67	-9.44	-3.81	0.433	66.96507975	174.9951656	32889	27.53894111	0.20431905
2010	1	0	-3.89	-1.07	0.022	111.5198336	85.07561953	32928	27.529464	0.42485
2010	2	2.78	-7.78	-0.12	0.073	216.0043044	110.3866428	32971	27.505272	0.22495
2010	3	-6.67	-11.11	-7.89	0.005	118.5879497	178.9096526	33017	26.899824	0.0677
2010	4	-6.11	-10.56	-7.33	0.005	120.014054	82.91417166	33066	26.351076	-0.0272
2010	5	-3.89	-7.78	-4.96	0.01	132.4565973	107.471542	33119	26.057316	-0.0654
2010	6	-2.78	-7.78	-4.15	0.019	121.4258647	86.79933685	33175	25.841424	-0.02655
2010	7	-1.11	-3.89	-1.87	0.079	165.2800878	66.69669615	33234	25.848876	0.00825
2010	8	-1.67	-6.11	-2.89	0.058	125.2094245	84.95921432	33296	25.91076	0.0258
2010	9	-4.44	-8.89	-5.67	0.005	176.6695034	209.6644086	33362	25.847364	-0.1322
2010	10	-2.78	-13.33	-5.68	0	146.0890171	292.5369268	33431	25.90158	-0.2808
2010	11	-4.44	-13.33	-6.89	0.016	127.458138	261.7366803	33503	25.365792	-0.24485
2010	12	-2.22	-9.44	-4.21	0.001	147.7534395	156.5544537	33579	24.993624	-0.4136
2010	13	-2.22	-6.67	-3.44	0	169.3752225	206.6843747	33657	24.630636	-0.30005
2010	14	0	-7.78	-2.14	0	186.0429463	176.3264865	33738	24.284064	-0.4601
2010	15	7.22	-7.22	3.25	0	245.8080478	288.1660458	33822	24.052188	-0.051
2010	16	5.56	2.22	4.64	0	241.7271257	59.95647173	33909	25.7007	0.33325
2010	17	9.44	-1.67	6.39	1.665	67.46757635	170.790435	33999	29.60922	0.3557
2010	18	3.89	-1.11	2.51	0.01	129.5067224	26.47219289	34092	30.058392	1.0997
2010	19	6.11	2.22	5.04	0.015	179.3813113	203.5951093	34187	29.453268	1.03715
2010	20	4.44	-2.22	2.61	0	253.3243194	45.43497156	34285	29.423244	0.8093
2010	21	1.67	-7.22	-0.78	0	178.2963888	164.4032455	34386	28.790472	0.62425
2010	22	3.33	-6.67	0.58	0.065	242.7984897	294.5434776	34489	28.836372	1.04025
2010	23	2.78	-4.44	0.79	0	267.359495	103.8670328	34595	28.825248	0.99835
2010	24	5	-5	2.25	1.476	142.2054918	298.4909374	34703	29.614404	1.36965
2010	25	13.33	1.67	10.12	3.723	284.4608514	68.47710691	34814	38.901864	4.75605
2010	26	11.67	-1.67	8	0.028	387.2378933	77.96546985	34926	33.967236	2.4762
2010	27	0.56	-3.89	-0.67	0.004	234.7107231	176.6892301	35042	29.77662	1.2507
2010	28	0.56	-3.89	-0.67	0.068	202.1964405	229.6415143	35159	29.338896	0.5752
2010	29	1.67	-13.33	-2.46	0	232.2756603	193.8167697	35278	28.169796	-0.06185
2010	30	-7.22	-13.33	-8.9	0	153.0169118	276.4918644	35400	27.071976	-0.40455
2010	31	-8.33	-13.89	-9.86	0	155.742414	142.3351068	35523	26.217048	-0.8738
2010	32	-2.22	-13.33	-5.28	0	191.5766279	338.7432467	35649	24.209436	-0.81785
2010	33	-1.11	-7.78	-2.94	0.188	149.8203472	258.1529517	35776	23.009232	-0.51775
2010	34	1.67	-6.67	-0.62	0.003	138.2543235	170.4110291	35905	23.533464	-0.2968
2010	35	1.11	-4.44	-0.42	0	282.8756916	113.4632035	36036	23.665548	-0.4023
2010	36	3.33	-4.44	1.19	1.194	169.1546818	336.3579861	36169	23.915352	-0.1987
2010	37	1.11	-5.56	-0.72	0.582	179.3266347	68.67597719	36303	24.425328	-0.10205
2010	38	-2.22	-15.56	-5.89	0.001	140.014984	205.5920143	36440	25.155516	0.0505
2010	39	-2.22	-14.44	-5.58	0	135.2405321	369.5466277	36577	24.919104	0.0966
2010	40	-1.67	-10.56	-4.11	0.269	77.78833028	401.6545103	36716	24.71412	0.1391
2010	41	-2.22	-8.89	-4.06	0.704	61.59693208	131.9910465	36857	24.827736	0.0764
2010	42	-2.78	-9.44	-4.61	0.001	139.1377205	104.2889808	36999	25.037688	0.11825
2010	43	-1.11	-5.56	-2.33	0	209.4065999	229.4715828	37143	25.26762	0.27105
2010	44	1.11	-7.78	-1.33	0.01	211.6857332	340.1720171	37287	25.513752	0.2314
2010	45	-3.33	-7.78	-4.56	0.004	137.1988201	192.6055619	37433	25.56192	0.22225
2010	46	-1.11	-9.44	-3.4	0.371	119.729269	126.4190948	37581	25.760424	0.29775
2010	47	0.56	-9.44	-2.19	0.011	165.7281876	221.9893451	37729	25.898016	0.30895
2010	48	-1.11	-6.67	-2.64	0.017	161.4629869	248.4792629	37879	26.092524	0.3627
2010	49	0.56	-5	-0.97	0.002	215.9663021	192.9330774	38029	26.114448	0.43635
2010	50	2.78	0	2.01	0	320.3520665	270.4695529	38181	26.371164	0.43115
2010	51	4.44	-3.89	2.15	0	334.1611361	301.7261178	38334	27.661008	0.37345
2010	52	5	-3.89	2.56	0	409.1621616	232.2372749	38487	28.260624	0.39555
2010	53	7.22	-3.33	4.32	0.15	253.520992	407.1309456	38642	29.283276	0.44675
2010	54	4.44	-2.22	2.61	0.017	75.61425035	137.8104026	38798	29.207136	0.5241
2010	55	3.33	-0.56	2.26	0	263.6064599	104.6039945	38954	29.34732	0.71
2010	56	2.78	-2.22	1.4	0.06	207.1322165	208.8667638	39111	29.266644	0.5603
2010	57	0.56	-6.67	-1.43	0.315	120.0686571	222.8887927	39269	29.23662	0.34435
2010	58	-2.22	-5.56	-3.14	0.081	119.7091058	132.2950695	39428	29.039412	0.5338
2010	59	1.67	-3.89	0.14	0.016	187.3356345	272.2746861	39587	29.197632	0.6136
2010	60	4.44	-1.11	2.92	0.006	233.5345711	251.1958638	39747	29.854056	0.7826
2010	61	3.89	0	2.82	0.005	243.5892452	165.3150575	39907	30.308952	0.85235
2010	62	3.33	-0.56	2.26	0.043	207.0671659	182.1579814	40068	30.520092	0.9594
2010	63	4.44	-2.78	2.46	0	394.4714723	115.5337808	40230	30.416952	1.014
2010	64	5	-2.78	2.86	0	426.5389723	439.5047534	40392	30.552492	1.38415
2010	65	7.22	-5	3.86	0	483.723969	419.4639872	40555	30.536292	1.60335
2010	66	9.44	-4.44	5.62	0	602.7230652	467.4409352	40718	30.315	2.81135
2010	67	10.56	-1.11	7.35	0.001	646.133554	460.0942958	40882	29.757504	3.8236
2010	68	11.67	-0.56	8.31	0	594.5900011	461.4164596	41046	29.666784	4.48245
2010	69	15.56	1.11	11.58	0.003	679.1629471	454.4945402	41210	29.356824	5.2261
2010	70	15.56	2.22	11.89	0.006	541.3981871	261.2535589	41375	28.343784	7.5602
2010	71	18.89	3.89	14.76	1.034	178.3883097	421.2968946	41540	29.834724	7.50245
2010	72	10	5	8.62	3.237	123.9284277	64.10411222	41705	31.40526	6.3749
2010	73	8.33	5	7.42	0.322	103.5372274	55.12892286	41870	35.478264	6.1871
2010	74	6.67	4.44	6.06	0.041	196.7819722	65.61390237	42036	30.063144	5.8864
2010	75	6.67	4.44	6.06	0	528.4148953	78.1147339	42202	29.37702	7.54625
2010	76	15.56	-0.56	11.13	0	786.6147442	476.9151246	42368	29.626392	7.27365
2010	77	17.78	0	12.89	0	884.5385146	492.73607	42534	29.099676	7.3701
2010	78	18.89	1.67	14.15	0	912.8883794	470.4246036	42701	29.138124	8.23255
2010	79	20	6.11	16.18	0	1037.163672	467.6267992	42867	28.76412	9.093
2010	80	21.11	6.67	17.14	0	1167.51575	434.3761299	43033	28.066224	10.6082
2010	81	22.78	7.78	18.65	0.346	561.2853258	416.7556944	43200	28.067844	10.98355
2010	82	18.33	7.78	15.43	0.215	335.6198265	124.479454	43366	29.625204	8.70925
2010	83	8.33	2.78	6.81	0	570.5693522	48.67755496	43533	29.569692	8.40525
2010	84	15.56	2.78	12.04	1.081	517.5675446	503.9315774	43699	29.397324	8.36645
2010	85	18.33	-1.11	12.99	0.221	733.2761299	231.4165508	43865	31.250928	7.6862
2010	86	5	-5.56	2.1	0	443.5347271	467.6842978	44032	30.550764	5.67815
2010	87	8.89	-5.56	4.92	2.297	172.9833566	470.2192181	44198	30.593964	4.8902
2010	88	7.22	2.78	6	0	186.4774684	150.5477538	44363	30.520956	7.63325
2010	89	14.44	1.67	10.93	0.002	690.6611826	225.4681668	44529	29.786016	6.77815
2010	90	10	1.67	7.71	0	707.0691914	266.377738	44695	29.045028	8.67705
2010	91	20	5	15.88	0.028	1108.768058	511.437004	44860	29.274852	10.3838
2010	92	26.67	6.67	21.17	0	1343.450028	507.3818101	45025	28.742088	12.1475
2010	93	28.33	10	23.29	0	1371.97667	462.4367559	45190	28.40016	13.08435
2010	94	25.56	12.22	21.89	0	1784.308152	435.8771001	45354	28.086096	12.6839
2010	95	21.11	7.22	17.29	0.127	1113.620212	465.9983303	45518	27.415956	12.4913
2010	96	26.67	8.33	21.63	0.157	1268.346143	406.7829076	45681	27.519096	14.62525
2010	97	30	15.56	26.03	0.049	2277.840818	446.655186	45845	27.285168	14.6087
2010	98	29.44	12.22	24.71	0.194	1355.85076	379.7380833	46007	27.55398	14.0628
2010	99	28.89	4.44	22.17	0.037	1122.008326	372.5798913	46169	27.37092	10.1235
2010	100	7.22	3.89	6.31	0	562.5312808	179.55233	46331	27.263784	10.1236
2010	101	16.67	5.56	13.61	0.126	923.1641868	548.0731954	46492	26.675724	10.915
2010	102	21.11	2.78	16.07	0	1318.838169	437.8569009	46653	26.602824	11.38155
2010	103	18.89	4.44	14.92	0.001	845.7859205	518.1982569	46813	26.443308	9.9551
2010	104	13.33	0	9.67	0	506.9135009	221.6722941	46972	26.078592	10.11715
2010	105	18.33	2.78	14.06	0	837.0168582	526.7408075	47131	25.808592	11.29485
2010	106	25.56	7.78	20.67	0.557	874.0810633	461.4455159	47289	26.130648	12.81065
2010	107	25.56	6.11	20.21	0.068	825.0047669	318.0201281	47446	27.409044	9.6511
2010	108	7.22	1.67	5.69	0.017	312.1296568	170.5551657	47602	27.109452	8.27765
2010	109	9.44	1.67	7.31	0	517.9129054	200.2423678	47758	27.163668	9.9938
2010	110	17.22	2.22	13.1	0	745.8473127	558.1331817	47912	26.811696	10.67165
2010	111	18.33	5	14.67	0.063	608.2405161	482.3339367	48066	26.56632	10.9199
2010	112	20	4.44	15.72	0.056	751.3825465	396.1591281	48219	27.06258	10.98065
2010	113	20	3.33	15.42	0.001	1116.214058	385.3875336	48370	27.2154	11.48975
2010	114	19.44	3.89	15.17	0.111	757.695633	564.1263783	48521	25.847904	10.0892
2010	115	16.67	6.11	13.76	1.316	125.4044897	259.9680097	48671	28.09614	9.99395
2010	116	11.67	7.78	10.6	1.117	100.9510084	107.3452959	48819	29.86518	10.27355
2010	117	12.22	5.56	10.39	0	599.0647484	107.8803864	48966	29.332308	10.041
2010	118	11.11	1.67	8.51	0	629.9726654	455.3688101	49112	28.833348	8.95395
2010	119	12.78	2.78	10.03	0.073	801.9290074	399.0018881	49257	28.489476	10.49355
2010	120	19.44	6.67	15.93	0.019	905.2578058	546.7403494	49401	28.413876	12.62295
2010	121	27.78	10	22.89	0	1358.744456	521.5866621	49543	28.388604	14.48965
2010	122	30.56	15.56	26.43	1.075	594.7040993	450.8251716	49683	26.763636	15.07285
2010	123	23.89	17.78	22.21	0.754	641.6816102	146.5390482	49823	30.08388	15.9993
2010	124	25	12.78	21.64	0.37	871.2859522	270.4929544	49960	30.497952	14.34335
2010	125	22.22	8.89	18.56	0	858.2302341	442.5669115	50096	29.251524	14.15175
2010	126	26.67	11.11	22.39	0.27	1221.65997	569.4504788	50231	28.636464	14.56045
2010	127	21.11	6.11	16.99	0	743.1969638	560.3188452	50363	29.028072	13.03455
2010	128	20.56	8.33	17.19	0.813	641.877035	446.5041489	50495	29.408124	12.9094
2010	129	16.11	2.78	12.44	0.001	632.339722	343.873558	50624	28.731396	9.71015
2010	130	8.33	2.22	6.65	0	538.1930523	221.9358042	50751	28.78302	9.7535
2010	131	15	1.67	11.33	2.929	284.1894484	601.7866816	50877	30.297936	8.17165
2010	132	9.44	3.33	7.76	0.369	95.03821326	84.61235294	51000	31.45872	9.36805
2010	133	16.11	6.67	13.51	0.001	325.1761622	124.2531591	51122	29.813772	10.4872
2010	134	14.44	7.78	12.61	0.295	322.4562471	204.1767335	51241	29.07624	13.00815
2010	135	27.22	11.11	22.79	0	1337.088583	332.1215001	51358	28.521228	13.6373
2010	136	21.11	10.56	18.21	0.003	900.2163436	517.0892312	51473	28.145388	13.3226
2010	137	19.44	8.89	16.54	0.338	439.1544302	545.8230915	51586	27.9336	12.1262
2010	138	15.56	8.33	13.57	0.512	179.6434306	138.9265141	51697	29.91216	11.1117
2010	139	11.67	8.33	10.75	0.003	250.5843739	92.26130682	51805	29.485452	11.71315
2010	140	17.78	10	15.64	0.001	659.6935837	253.1652475	51910	28.61184	13.9381
2010	141	27.22	13.33	23.4	0	1003.374627	550.5801323	52014	27.720408	14.724
2010	142	27.78	15.56	24.42	1.541	781.8861175	410.6865142	52114	27.640812	14.86865
2010	143	22.22	15	20.24	0.632	266.716222	299.7104497	52212	30.588024	15.4155
2010	144	22.22	13.89	19.93	0.005	399.917488	255.3545538	52308	29.344512	15.6872
2010	145	23.33	15	21.04	0.007	644.1077855	286.6230725	52400	28.89804	16.79895
2010	146	26.67	16.11	23.76	0	895.8815694	439.6306725	52490	27.878196	17.49145
2010	147	30	17.78	26.64	0	1313.359499	547.7983339	52577	26.921316	18.4505
2010	148	30.56	18.89	27.35	0.049	664.1662989	479.0819376	52662	26.209704	17.6645
2010	149	26.11	17.78	23.82	0	684.3608582	289.6928502	52743	25.696272	17.88495
2010	150	26.11	13.33	22.6	0	956.8020012	354.3647792	52821	25.057992	17.787
2010	151	30	16.11	26.18	0.126	789.0704057	569.5046317	52896	23.829168	17.96995
2010	152	30.56	17.78	27.04	0.308	503.5565497	397.5129038	52969	23.014848	18.05015
2010	153	26.11	14.44	22.9	0.001	795.9966503	256.7324937	53038	22.72962	17.93345
2010	154	28.33	16.11	24.97	0	918.3023758	527.5724912	53103	21.522612	18.6541
2010	155	27.78	18.89	25.33	0.04	670.8221589	376.3463868	53166	20.405676	18.71835
2010	156	28.33	18.89	25.74	0.189	534.0558894	354.1336778	53225	19.548696	18.8119
2010	157	27.78	18.89	25.33	0.105	791.4485343	293.8819467	53281	19.055892	18.6585
2010	158	25.56	12.78	22.04	0	1096.404058	343.5280309	53334	18.476688	16.5077
2010	159	21.11	10	18.06	0	920.4562131	410.4082198	53383	17.995764	15.667
2010	160	22.22	11.67	19.32	3.931	255.7260075	585.2579124	53429	23.88468	14.1904
2010	161	17.22	12.22	15.85	0	513.1863292	72.04826916	53471	27.12846	16.46785
2010	162	25.56	12.78	22.04	0	685.5874432	487.6168193	53510	26.100948	16.7669
2010	163	25.56	13.89	22.35	0.021	570.430018	467.1209801	53546	24.909276	18.54035
2010	164	31.11	19.44	27.9	0.529	730.595471	471.5924371	53577	25.104864	19.7671
2010	165	28.33	16.67	25.12	0.009	625.1153143	296.6134574	53606	24.949668	18.63015
2010	166	25	18.33	23.17	0.018	529.8318543	218.7056312	53630	23.97486	18.01795
2010	167	23.33	17.78	21.81	0.105	485.7824635	255.665188	53651	23.140884	18.58725
2010	168	28.33	17.22	25.28	0	1173.624179	428.3863683	53669	22.149012	18.3235
2010	169	23.33	11.67	20.12	0	676.6384707	434.4317648	53682	21.422064	17.5567
2010	170	27.22	13.89	23.56	0.043	778.92801	574.6877247	53693	19.265412	18.76825
2010	171	31.11	17.78	27.44	0	1104.615981	503.0047114	53699	17.936148	19.7258
2010	172	28.89	16.11	25.38	0	1056.244733	418.5089568	53702	16.676976	19.478
2010	173	29.44	18.89	26.54	0.449	654.9866769	523.446677	53701	15.93102	19.1849
2010	174	27.78	20.56	25.79	0.042	875.979023	289.275514	53696	15.569436	20.5325
2010	175	31.67	20.56	28.61	0.009	1198.900125	496.9816905	53688	14.856528	20.3968
2010	176	28.33	16.67	25.12	0	1026.932597	378.4889336	53676	14.240064	19.67355
2010	177	27.22	17.22	24.47	0	950.2680028	495.7837908	53661	13.849968	18.2014
2010	178	30	19.44	27.1	1.034	899.8804639	446.1037453	53641	13.5001469	20.1199431
2010	179	31.67	21.11	28.76	0.139	968.1793801	452.7681046	53619	13.9052749	20.4326932
2010	180	26.67	19.44	24.68	0	1134.858296	228.4517279	53592	13.54562045	19.69275925
2010	181	25	8.89	20.57	0	1057.861714	488.4842612	53562	12.28505817	17.26080255
2010	182	22.22	10	18.86	0	983.406447	539.4237142	53529	11.52204742	16.39046735
2010	183	22.22	10	18.86	0	883.5957742	474.1217962	53491	11.01563742	16.36619675
2010	184	25	12.22	21.49	0	1060.72511	574.5579877	53451	10.7498829	17.07579245
2010	185	30	13.33	25.42	0	1367.643937	574.7227143	53407	10.63767543	18.13305385
2010	186	32.78	18.33	28.81	0	1530.310727	565.443018	53359	10.14130505	19.56672245
2010	187	34.44	20.56	30.62	0	1773.996979	475.057271	53308	10.58806792	20.3737199
2010	188	33.89	21.11	30.38	0	1710.002764	492.9856537	53254	10.16256541	21.0011362
2010	189	33.89	21.11	30.38	0	1870.65705	496.0998383	53196	10.19061727	20.9694141
2010	190	34.44	22.22	31.08	3.792	1197.390857	476.904338	53135	10.05596832	21.1201473
2010	191	32.78	18.33	28.81	0.019	1312.467067	392.8769196	53071	10.49564441	20.67209925
2010	192	27.78	14.44	24.11	0	1133.416809	525.5413365	53004	10.85588942	19.5853512
2010	193	30	17.22	26.49	0.795	682.3568476	568.3926095	52933	11.51938987	19.1418805
2010	194	27.78	19.44	25.49	0.401	456.26382	344.053689	52860	14.08480684	19.77472575
2010	195	25.56	19.44	23.88	0.925	524.0691574	206.5965368	52783	15.23257108	20.49965025
2010	196	28.33	18.33	25.58	0	848.8172994	312.7365805	52703	18.506604	21.8103
2010	197	30.56	20	27.65	0.487	485.2050045	501.7411631	52620	17.458248	20.8047
2010	198	29.44	18.89	26.54	0.003	831.2836514	324.7284858	52535	17.506524	21.1936
2010	199	30	18.89	26.94	0.003	1335.872475	494.1107234	52446	15.288096	21.94895
2010	200	31.67	22.22	29.07	0.001	1172.862153	516.2557922	52355	13.45836	21.58485
2010	201	30.56	18.33	27.19	0.459	546.8714812	459.8963854	52261	12.703224	20.7184
2010	202	29.44	18.89	26.54	0.761	750.04759	326.6476689	52164	12.4113	21.49515
2010	203	31.11	18.89	27.75	0	979.5500502	417.1403822	52065	12.38052	21.18765
2010	204	29.44	20	26.85	0.001	1130.484838	516.7896773	51963	11.91288	22.2376
2010	205	33.89	22.22	30.68	0.008	1667.306151	440.4106213	51858	11.356788	23.31115
2010	206	32.78	22.22	29.88	0.201	1058.341802	478.5279318	51751	10.873056	22.02895
2010	207	27.22	17.22	24.47	0	1104.311093	280.8925487	51642	10.51644	20.3593
2010	208	27.78	16.11	24.57	0	989.1303315	564.1301378	51530	10.2594	20.01675
2010	209	29.44	18.33	26.39	0.001	1062.703218	530.1708773	51417	9.9138	20.79865
2010	210	30.56	20	27.65	0.312	1242.692256	499.9139181	51300	9.860664	21.5925
2010	211	28.89	14.44	24.92	0	1191.594979	458.6983705	51182	10.3971	19.4826
2010	212	25.56	13.33	22.19	0	1046.683227	492.6402217	51062	10.544412	19.0563
2010	213	26.67	15.56	23.61	0.003	1014.72537	468.5463397	50939	10.15626	19.99915
2010	214	27.78	18.33	25.18	0	799.9971262	406.3037292	50815	9.627492	19.4676
2010	215	25.56	19.44	23.88	0.122	482.7329491	319.319839	50688	9.171732	20.1243
2010	216	28.33	21.67	26.5	0.21	643.2302471	250.2314478	50560	9.353388	21.54945
2010	217	32.22	20.56	29.01	0.016	1043.26288	360.6039064	50430	9.340752	21.46715
2010	218	28.33	18.33	25.58	0.199	980.2004728	368.7530916	50298	9.293232	20.35915
2010	219	25.56	15	22.65	0	950.096899	392.7425644	50164	9.41471391	19.36829965
2010	220	26.67	13.89	23.15	0	1108.238357	462.3589718	50029	9.32611368	19.12303885
2010	221	29.44	15	25.47	0	1455.063619	506.9994989	49892	9.26590152	19.8303991
2010	222	32.22	17.22	28.1	0	1413.836914	509.5128834	49754	9.15456	21.97115
2010	223	32.22	20	28.86	0	1543.52506	388.7245536	49614	9.046992	21.68055
2010	224	31.67	20	28.46	1.738	407.2173777	505.668277	49472	8.96394	20.69545
2010	225	23.33	16.67	21.5	0.057	456.9723593	142.4630043	49330	10.06338	19.37285
2010	226	21.67	17.22	20.44	0	729.8387913	171.2793884	49186	10.170084	19.13545
2010	227	24.44	19.44	23.07	0.924	306.2990266	208.9867047	49040	10.338456	19.6496
2010	228	27.22	19.44	25.08	0	894.7940435	221.0361394	48894	10.869384	21.48875
2010	229	30	16.67	26.33	0	1297.342299	449.2098429	48746	11.362944	19.68695
2010	230	27.78	17.78	25.03	0	866.6201794	506.3022615	48597	11.173188	19.0692
2010	231	25.56	14.44	22.5	0	779.0633917	270.5033852	48446	11.189928	19.03655
2010	232	30	16.11	26.18	0	1085.611031	468.7396625	48295	10.474212	19.65515
2010	233	29.44	16.67	25.93	0.435	1022.523487	461.6193631	48143	10.062084	19.74695
2010	234	28.33	17.22	25.28	4.741	519.1962818	306.8267764	47990	12.475452	20.61935
2010	235	26.11	17.22	23.67	0.2	405.6654593	253.2890919	47836	14.014884	18.9186
2010	236	20.56	15	19.03	0.053	371.05711	155.1791699	47681	13.55741034	18.67658755
2010	237	20.56	15	19.03	0.085	441.8330614	172.3907628	47525	13.41408657	18.9059873
2010	238	25	16.67	22.71	0.012	877.2703059	279.0671128	47368	13.16276262	18.84435275
2010	239	24.44	10.56	20.62	0.095	748.6583543	455.2917814	47210	12.61090266	17.67084795
2010	240	25	10.56	21.03	0	779.5339742	547.6961022	47052	12.05669626	17.45049645
2010	241	27.22	12.22	23.1	0	791.4642562	536.0757896	46893	11.809416	19.25715
2010	242	30.56	14.44	26.13	0	1024.022671	518.6078444	46734	12.537552	18.93485
2010	243	30.56	16.67	26.74	0	1047.837738	511.5565456	46573	12.202644	19.4774
2010	244	32.22	18.33	28.4	0	1262.067289	488.2495637	46413	11.243172	19.8568
2010	245	32.22	18.33	28.4	0	1320.47912	492.8001341	46251	10.993044	20.10395
2010	246	32.78	18.33	28.81	0.006	1314.304528	503.9149906	46089	11.980812	19.73125
2010	247	31.67	15	27.08	0	1431.1609	400.319028	45927	10.9236	17.4729
2010	248	19.44	10.56	17	0	721.8798257	265.2846998	45764	10.793136	15.4638
2010	249	20	7.78	16.64	0	679.7199161	415.3873904	45600	10.28046	15.45825
2010	250	25.56	8.89	20.97	0.002	1107.261922	457.7717499	45437	10.288344	17.706
2010	251	31.67	15	27.08	0	1890.012094	495.0344584	45272	9.430068	18.5495
2010	252	23.89	13.33	20.99	0	1038.530398	503.5719828	45108	12.085464	16.40635
2010	253	19.44	12.78	17.61	0.002	777.2339625	231.0999266	44943	11.979624	16.25445
2010	254	20	8.33	16.79	0.202	748.6275351	290.650163	44778	10.239636	15.6156
2010	255	22.78	10	19.26	0.459	216.9822357	447.5443705	44613	9.782688	16.0779
2010	256	20.56	9.44	17.5	0.003	619.4254481	139.7689383	44447	10.578432	16.16095
2010	257	25	11.11	21.18	0	1061.000073	452.1078792	44281	10.254756	15.6438
2010	258	22.78	11.11	19.57	0	990.0210669	500.4573501	44115	11.033328	15.6025
2010	259	23.89	10.56	20.22	2.56	372.4080067	503.9175863	43949	11.41338	14.19645
2010	260	17.78	11.67	16.1	0.049	375.0209321	84.36151018	43783	13.98	15.95805
2010	261	17.78	8.89	15.33	0.006	375.7720653	239.2505674	43617	13.93302	15.2592
2010	262	22.78	8.89	18.96	0.021	480.5608047	453.506214	43450	14.266632	16.22885
2010	263	26.11	11.67	22.14	0	1081.792827	332.6857037	43284	13.32498	15.76385
2010	264	20.56	7.22	16.89	0	643.9765751	493.7118306	43117	12.116568	14.5052
2010	265	25	7.22	20.11	0.013	635.0261859	480.9962981	42951	13.12356	16.79105
2010	266	30.56	15	26.28	0	782.4224953	375.1295812	42784	11.658756	18.1603
2010	267	28.89	16.11	25.38	0	1217.707535	349.8233376	42618	10.59528	19.1033
2010	268	31.11	17.22	27.29	0	1751.510632	405.625106	42452	10.233912	18.8761
2010	269	25.56	10	21.28	0.007	831.7510312	472.0965095	42286	12.346392	15.8977
2010	270	18.33	10	16.04	2.374	164.7892971	268.5343305	42120	10.866036	16.21545
2010	271	20	13.33	18.17	0.476	426.1130836	99.07493922	41954	14.03886	17.60795
2010	272	22.78	12.22	19.88	0.011	487.310112	298.0669331	41788	15.41262	15.56565
2010	273	18.33	12.22	16.65	7.102	126.6738748	248.5008769	41623	18.28002	15.845
2010	274	17.78	12.22	16.25	0.315	547.663525	17.46538666	41458	19.4949503	15.5730378
2010	275	18.33	5.56	14.82	0	426.5965178	271.3559683	41293	19.04338817	13.9933198
2010	276	16.67	5.56	13.61	0.08	575.8699083	458.080284	41129	18.51225621	13.7271948
2010	277	16.67	6.11	13.76	0.539	278.6348763	337.7378674	40964	18.64367305	12.53016455
2010	278	9.44	6.67	8.68	0.213	133.5831472	101.3366339	40801	19.25863989	11.87954215
2010	279	11.11	7.78	10.19	0.153	190.0250428	71.4293378	40637	19.2950261	12.02495285
2010	280	12.22	8.33	11.15	0.014	463.5628944	85.42313584	40474	19.28809539	13.1570486
2010	281	18.89	7.22	15.68	0	655.8766755	338.7311719	40312	19.09403563	13.42328005
2010	282	22.22	7.78	18.25	0.069	779.6958025	438.6341968	40150	20.72145677	13.96830405
2010	283	22.78	6.67	18.35	0	692.8307783	417.9222036	39989	20.30225053	14.13606925
2010	284	25	6.67	19.96	0.079909632	741.3670975	369.4599528	39828	20.15659413	15.35556045
2010	285	24.44	12.78	21.24	0.523662809	521.5284483	277.3587617	39667	20.16725192	15.44926915
2010	286	20.56	3.33	15.82	0.040224015	566.6405233	344.9811684	39508	20.07589947	13.83551318
2010	287	15.56	3.89	12.35	0.147938583	231.1095259	441.6509441	39349	19.89234872	12.55137102
2010	288	12.22	6.11	10.54	0.048341628	468.0303829	77.99188589	39191	20.02159551	12.49730187
2010	289	13.89	6.11	11.75	0.006908119	761.6832293	307.2938539	39033	20.06608754	12.46922751
2010	290	16.11	6.67	13.51	0	685.4528063	422.1212059	38876	20.04933959	12.28414468
2010	291	19.44	5	15.47	0.08731825	555.0569026	392.1113378	38720	19.89742385	11.96596856
2010	292	11.67	5.56	9.99	0.159114079	282.4429187	124.3855309	38565	19.95697212	11.75177157
2010	293	13.33	2.78	10.43	0	414.7898982	271.7385645	38411	19.99554315	10.85820064
2010	294	15.56	3.33	12.19	0.008091048	699.3025205	347.0574259	38258	20.03157661	10.854082
2010	295	13.33	3.33	10.58	0.070468828	490.3280585	282.2905054	38106	19.93075058	10.31643168
2010	296	10.56	3.33	8.57	0	557.1833776	197.7326571	37955	19.8642663	10.41461131
2010	297	21.67	8.89	18.15	0	1012.377238	300.9086076	37804	20.10076764	11.98982655
2010	298	22.78	10	19.26	0.267831436	789.3058313	292.8822202	37655	20.15405656	12.69133219
2010	299	20.56	10.56	17.81	0	358.6443465	159.6884315	37507	20.34623505	13.34998166
2010	300	20.56	11.11	17.96	0.939814336	632.6654051	209.8228366	37361	22.71801527	14.2014283
2010	301	21.11	12.22	18.67	0	1297.96509	332.1233642	37215	22.32012461	13.05622199
2010	302	17.78	6.11	14.57	0.01376125	689.7388036	358.5730895	37071	21.99040994	11.86302923
2010	303	9.44	1.11	7.15	0	444.2267866	155.9733536	36928	21.66627792	10.53937501
2010	304	14.44	1.67	10.93	0	808.029403	259.3493354	36787	21.62872191	10.72237827
2010	305	10.56	0	7.65	0	472.1719969	293.7119819	36647	21.44161857	9.806322197
2010	306	8.89	-2.78	5.68	0	319.3909071	371.8125668	36509	21.16773039	8.693745592
2010	307	8.89	-3.33	5.53	0	312.2789986	367.1941878	36372	21.01598383	8.297585137
2010	308	11.67	-1.67	8	1.06781907	83.69635213	355.4632834	36237	22.4740704	8.958892353
2010	309	7.22	4.44	6.46	0.148926353	175.9257212	54.8098496	36103	22.98124566	9.002563584
2010	310	7.78	0	5.64	0.016347056	172.1142941	100.7224709	35971	22.68232015	8.416066013
2010	311	6.67	-1.67	4.38	0	210.7492259	146.9910438	35841	22.47931471	7.713447216
2010	312	7.22	-1.67	4.78	0	361.6596132	185.7458068	35713	22.37324436	7.935631487
2010	313	12.78	1.67	9.72	0	368.5225518	335.5141348	35586	22.35987984	8.518141652
2010	314	13.33	2.78	10.43	0	419.5066571	310.0616716	35462	22.35192879	9.171559323
2010	315	15.56	-0.56	11.13	0	492.2783269	330.0317213	35339	22.566	8.43292567
2010	316	14.44	-1.67	10.01	0	481.0964535	337.9227122	35219	21.93458344	7.851922784
2010	317	15.56	-2.78	10.51	0	559.4893169	340.6536752	35100	21.76338219	7.574971648
2010	318	16.11	-2.22	11.07	0.029475129	579.0470585	335.348102	34984	21.72379613	7.376330116
2010	319	16.11	1.11	11.99	0.141646561	372.2928587	248.0123315	34870	23.060748	8.289251908
2010	320	11.11	5.56	9.58	1.358695403	152.0840852	203.0266118	34759	24.54726	8.246120965
2010	321	13.33	6.11	11.35	0.834522455	320.9556925	44.64180784	34649	26.760828	8.804495498
2010	322	10	4.44	8.47	0.020112001	232.0091213	67.80163279	34542	23.46422943	8.331898247
2010	323	7.22	0.56	5.39	0.045513148	269.3813889	64.19658517	34438	23.17596171	6.84658615
2010	324	8.33	1.67	6.5	0	277.0268488	233.4916997	34336	22.94774976	5.89683925
2010	325	9.44	0	6.85	0	207.7341228	107.2860356	34237	23.17019583	5.00265925
2010	326	10	0.56	7.4	0	298.3917824	257.8959578	34140	23.14524881	4.1013471
2010	327	16.11	7.78	13.82	0.002832253	539.9005792	237.1552899	34046	22.93450008	1.061348
2010	328	16.67	1.11	12.39	0	692.4428835	91.38558049	33954	24.20526746	0.98012665
2010	329	6.11	1.11	4.74	1.713758143	181.2210866	238.7872793	33866	23.87904312	0.63118355
2010	330	6.67	1.67	5.29	0.769087163	222.6173954	31.3071048	33780	24.79014492	0.26286655
2010	331	5.56	-1.67	3.57	0	302.8723865	234.1558002	33697	25.90679177	0.4554346
2010	332	1.67	-1.11	0.9	0	235.2704458	74.68713189	33618	23.3945309	0.71719515
2010	333	5.56	-4.44	2.81	0	198.9130146	285.5329895	33541	23.14094327	0.6702507
2010	334	7.22	-4.44	4.01	3.310067341	144.0269041	271.9509367	33467	24.00171204	0.29480155
2010	335	15.56	6.11	12.96	3.143135068	217.6643005	35.0959667	33397	23.64227603	0.19857075
2010	336	8.89	-3.33	5.53	0.001751674	225.6602918	59.24984248	33329	24.03783165	0.1098979
2010	337	0	-3.89	-1.07	0.007292948	141.7869422	117.1770329	33265	24.78287508	0.1907999
2010	338	0.56	-3.33	-0.51	0.003402872	141.1717228	105.6861222	33204	23.79096331	0.2740438
2010	339	1.11	-5	-0.57	0.003878706	208.3396032	135.5414228	33146	23.32003098	0.50472095
2010	340	0	-4.44	-1.22	0.000113745	185.6257966	181.157319	33092	23.51516868	0.20623515
2010	341	-1.67	-5.56	-2.74	0.009670218	148.6670345	112.8574196	33041	23.35354874	0.1377878
2010	342	-2.22	-6.67	-3.44	0	170.1421997	109.4410329	32993	22.72512879	0.22922835
2010	343	-2.22	-7.78	-3.75	0.003	169.1102716	141.160885	32949	23.25268934	0.41551585
2010	344	-1.11	-7.78	-2.94	0.141	92.37163869	278.3194871	32909	26.62038359	0.5105757
2010	345	-1.11	-6.11	-2.49	0.001	125.3133763	68.04100754	32872	26.89931573	0.39699355
2010	346	3.33	-6.67	0.58	1.151	53.99989583	214.0411109	32838	26.14845643	0.2116641
2010	347	6.67	-5.56	3.31	0.019	286.7707843	43.10753475	32808	25.07672951	0.05145685
2010	348	-2.78	-10.56	-4.92	0.026	157.1837901	185.3396376	32782	25.39736756	-0.0766025
2010	349	-6.11	-10	-7.18	0.002	133.9123063	131.4019964	32759	25.44305274	-0.05030935
2010	350	-4.44	-10	-5.97	0	116.3516088	142.4384239	32740	25.17521667	0.1552456
2010	351	-3.89	-10	-5.57	0	127.3264968	133.26696	32724	24.78777265	0.19644175
2010	352	-1.11	-6.67	-2.64	0	177.9268931	146.6265591	32712	25.06900053	0.5039758
2010	353	-0.56	-10.56	-3.31	0	125.3856509	173.7958048	32704	26.09726147	0.55113315
2010	354	-1.67	-11.11	-4.26	0.006	122.916714	199.5150922	32699	25.15723338	0.61095805
2010	355	-1.67	-4.44	-2.43	0.001	206.3356866	68.5882317	32698	24.73022616	0.54708805
2010	356	1.67	-5	-0.17	0	258.9447398	261.5004434	32701	23.39502507	0.8471706
2010	357	2.78	-3.89	0.94	0.007	253.2793513	154.8191213	32707	21.47731879	0.6723797
2010	358	1.11	-5	-0.57	0	228.4464871	146.2933032	32717	26.34634902	0.2915016
2010	359	0.56	-5	-0.97	0.003	180.6076639	237.0277718	32731	26.75192936	0.12362995
2010	360	-1.11	-6.11	-2.49	0.003	171.8522103	95.08027726	32749	27.30849273	0.214006
2010	361	-2.78	-8.89	-4.46	0	194.8111694	94.07567897	32770	27.34415318	0.2255026
2010	362	-2.22	-8.89	-4.06	0	193.5319113	263.7063792	32794	26.08440535	0.70420825
2010	363	1.11	-6.11	-0.88	0	209.7445961	213.9627993	32822	25.20574998	0.35015555
2010	364	4.44	-7.22	1.24	0.002	149.7636122	237.5259634	32854	24.28370516	0.20176425
2010	365	3.33	-7.22	0.43	0	147.0148056	124.7939433	32889	24.15422556	0.10818949
